TITLE	N2200
DATA TYPE	ULTRAVIOLET SPECTRUM
ORIGIN	JASCO
OWNER	
DATE	21/10/25
TIME	14:51:38
SPECTROMETER/DATA SYSTEM	
LOCALE	1033
RESOLUTION	
DELTAX	-0.5
XUNITS	NANOMETERS
YUNITS	ABSORBANCE
FIRSTX	 1600.0000
LASTX	  200.0000
NPOINTS	    2801
FIRSTY	     0.00051
MAXY	     0.09831
MINY	    -0.00346
XYDATA
1600.0000	0.000512587
1599.5000	0.000512652
1599.0000	0.000512812
1598.5000	0.000516224
1598.0000	0.00051461
1597.5000	0.00051588
1597.0000	0.000518407
1596.5000	0.000516195
1596.0000	0.000514152
1595.5000	0.000513272
1595.0000	0.000514126
1594.5000	0.000508624
1594.0000	0.000510823
1593.5000	0.000510181
1593.0000	0.000513687
1592.5000	0.000518736
1592.0000	0.000520295
1591.5000	0.000518911
1591.0000	0.000520996
1590.5000	0.00052009
1590.0000	0.000520365
1589.5000	0.000520676
1589.0000	0.00052666
1588.5000	0.000522371
1588.0000	0.000524951
1587.5000	0.00052495
1587.0000	0.000522769
1586.5000	0.000520916
1586.0000	0.000521189
1585.5000	0.000520995
1585.0000	0.000525159
1584.5000	0.000525722
1584.0000	0.000529079
1583.5000	0.000530102
1583.0000	0.000534425
1582.5000	0.000534073
1582.0000	0.000542422
1581.5000	0.000545203
1581.0000	0.000546366
1580.5000	0.000546222
1580.0000	0.000547401
1579.5000	0.000548625
1579.0000	0.000549571
1578.5000	0.000549274
1578.0000	0.000552991
1577.5000	0.000551783
1577.0000	0.000553644
1576.5000	0.000552513
1576.0000	0.000553818
1575.5000	0.000549841
1575.0000	0.000551981
1574.5000	0.000555573
1574.0000	0.00055882
1573.5000	0.000560244
1573.0000	0.000561128
1572.5000	0.000559731
1572.0000	0.000563828
1571.5000	0.000562741
1571.0000	0.000563266
1570.5000	0.00056569
1570.0000	0.000565371
1569.5000	0.000563642
1569.0000	0.000568073
1568.5000	0.000567847
1568.0000	0.000563122
1567.5000	0.000561509
1567.0000	0.000562766
1566.5000	0.000563286
1566.0000	0.000562535
1565.5000	0.000561773
1565.0000	0.000565296
1564.5000	0.000567384
1564.0000	0.000567866
1563.5000	0.000568889
1563.0000	0.000572483
1562.5000	0.000571621
1562.0000	0.000573809
1561.5000	0.000575342
1561.0000	0.000574786
1560.5000	0.000573483
1560.0000	0.000574324
1559.5000	0.000578249
1559.0000	0.000577641
1558.5000	0.000574893
1558.0000	0.000575472
1557.5000	0.000573862
1557.0000	0.000573029
1556.5000	0.000570236
1556.0000	0.00057096
1555.5000	0.000574382
1555.0000	0.000576058
1554.5000	0.000576366
1554.0000	0.000579393
1553.5000	0.000581541
1553.0000	0.000580872
1552.5000	0.000582127
1552.0000	0.000584792
1551.5000	0.000585031
1551.0000	0.000585915
1550.5000	0.000588331
1550.0000	0.000593772
1549.5000	0.000594231
1549.0000	0.000594999
1548.5000	0.000603664
1548.0000	0.000608244
1547.5000	0.000609917
1547.0000	0.000610487
1546.5000	0.000612214
1546.0000	0.000611798
1545.5000	0.000613763
1545.0000	0.000611323
1544.5000	0.000610923
1544.0000	0.000607583
1543.5000	0.00060956
1543.0000	0.00060977
1542.5000	0.000605401
1542.0000	0.00059773
1541.5000	0.000597931
1541.0000	0.000597526
1540.5000	0.00059436
1540.0000	0.000597358
1539.5000	0.000599904
1539.0000	0.000598294
1538.5000	0.000600437
1538.0000	0.000607205
1537.5000	0.000610914
1537.0000	0.000614144
1536.5000	0.00061759
1536.0000	0.000623032
1535.5000	0.000625537
1535.0000	0.000626127
1534.5000	0.000627219
1534.0000	0.000629867
1533.5000	0.000625429
1533.0000	0.000624234
1532.5000	0.000628378
1532.0000	0.000627164
1531.5000	0.000622228
1531.0000	0.000619547
1530.5000	0.000624251
1530.0000	0.000622267
1529.5000	0.000617396
1529.0000	0.000618992
1528.5000	0.00062365
1528.0000	0.000625808
1527.5000	0.000623774
1527.0000	0.000624536
1526.5000	0.00063119
1526.0000	0.00063343
1525.5000	0.000628894
1525.0000	0.000628523
1524.5000	0.000633488
1524.0000	0.000631144
1523.5000	0.000628175
1523.0000	0.000626533
1522.5000	0.000631206
1522.0000	0.000628098
1521.5000	0.000623685
1521.0000	0.000624365
1520.5000	0.000630738
1520.0000	0.000627804
1519.5000	0.000623316
1519.0000	0.000626339
1518.5000	0.000633592
1518.0000	0.000634167
1517.5000	0.000631271
1517.0000	0.000630763
1516.5000	0.000635442
1516.0000	0.000637798
1515.5000	0.000633946
1515.0000	0.000636697
1514.5000	0.000642862
1514.0000	0.000644727
1513.5000	0.00064377
1513.0000	0.000645491
1512.5000	0.000651953
1512.0000	0.000650776
1511.5000	0.000645402
1511.0000	0.000642313
1510.5000	0.000650116
1510.0000	0.000652034
1509.5000	0.000646762
1509.0000	0.000646024
1508.5000	0.000652591
1508.0000	0.000653477
1507.5000	0.00064983
1507.0000	0.000646787
1506.5000	0.000653349
1506.0000	0.000653674
1505.5000	0.000651032
1505.0000	0.000651456
1504.5000	0.000659689
1504.0000	0.000661375
1503.5000	0.000656808
1503.0000	0.000655528
1502.5000	0.000660855
1502.0000	0.00065887
1501.5000	0.000656179
1501.0000	0.000654948
1500.5000	0.000659339
1500.0000	0.000658489
1499.5000	0.000658329
1499.0000	0.000660725
1498.5000	0.000666746
1498.0000	0.00066862
1497.5000	0.0006704
1497.0000	0.000669114
1496.5000	0.000669663
1496.0000	0.000670103
1495.5000	0.000672143
1495.0000	0.000675349
1494.5000	0.000674076
1494.0000	0.000675024
1493.5000	0.000678836
1493.0000	0.000674653
1492.5000	0.000671757
1492.0000	0.000666172
1491.5000	0.000665527
1491.0000	0.000665419
1490.5000	0.000665625
1490.0000	0.000664515
1489.5000	0.000667986
1489.0000	0.000671777
1488.5000	0.000671383
1488.0000	0.000674793
1487.5000	0.000678145
1487.0000	0.000679866
1486.5000	0.000681589
1486.0000	0.000681417
1485.5000	0.000681542
1485.0000	0.000683879
1484.5000	0.00068572
1484.0000	0.000685533
1483.5000	0.000689453
1483.0000	0.000689804
1482.5000	0.00069246
1482.0000	0.000691595
1481.5000	0.000691562
1481.0000	0.000690291
1480.5000	0.000693431
1480.0000	0.000699129
1479.5000	0.000704841
1479.0000	0.000705806
1478.5000	0.00070589
1478.0000	0.000709836
1477.5000	0.000709072
1477.0000	0.000700493
1476.5000	0.00070079
1476.0000	0.000693982
1475.5000	0.000688076
1475.0000	0.000681673
1474.5000	0.000685868
1474.0000	0.000682267
1473.5000	0.000679759
1473.0000	0.00068177
1472.5000	0.000689428
1472.0000	0.000698656
1471.5000	0.000702662
1471.0000	0.000708297
1470.5000	0.000712505
1470.0000	0.0007165
1469.5000	0.000727309
1469.0000	0.000736948
1468.5000	0.000742107
1468.0000	0.000748346
1467.5000	0.000754264
1467.0000	0.000758753
1466.5000	0.000763383
1466.0000	0.000758665
1465.5000	0.00074893
1465.0000	0.000742464
1464.5000	0.000744955
1464.0000	0.000740696
1463.5000	0.000742192
1463.0000	0.000742741
1462.5000	0.000741925
1462.0000	0.000738288
1461.5000	0.00074057
1461.0000	0.00073296
1460.5000	0.000727058
1460.0000	0.000722314
1459.5000	0.00072481
1459.0000	0.000726922
1458.5000	0.000734459
1458.0000	0.000742434
1457.5000	0.000739635
1457.0000	0.00073765
1456.5000	0.000741197
1456.0000	0.000741865
1455.5000	0.000744943
1455.0000	0.000742545
1454.5000	0.000735332
1454.0000	0.000736613
1453.5000	0.000744738
1453.0000	0.000753433
1452.5000	0.00075673
1452.0000	0.00075975
1451.5000	0.000754556
1451.0000	0.000751376
1450.5000	0.000756818
1450.0000	0.000751135
1449.5000	0.000742959
1449.0000	0.000735299
1448.5000	0.000743845
1448.0000	0.000763387
1447.5000	0.000772116
1447.0000	0.000773114
1446.5000	0.000761651
1446.0000	0.00074865
1445.5000	0.000741165
1445.0000	0.000735726
1444.5000	0.000740077
1444.0000	0.000745225
1443.5000	0.000750011
1443.0000	0.000762385
1442.5000	0.000772759
1442.0000	0.000763817
1441.5000	0.000757662
1441.0000	0.000755758
1440.5000	0.000752486
1440.0000	0.000763812
1439.5000	0.000773601
1439.0000	0.000781866
1438.5000	0.000784087
1438.0000	0.000780712
1437.5000	0.000774077
1437.0000	0.000764568
1436.5000	0.000762979
1436.0000	0.000763768
1435.5000	0.000766728
1435.0000	0.000779575
1434.5000	0.000785278
1434.0000	0.000797923
1433.5000	0.000800923
1433.0000	0.000802391
1432.5000	0.000802288
1432.0000	0.000804216
1431.5000	0.000807459
1431.0000	0.00081847
1430.5000	0.000824046
1430.0000	0.000827276
1429.5000	0.000826499
1429.0000	0.000824648
1428.5000	0.000812099
1428.0000	0.000800227
1427.5000	0.000791246
1427.0000	0.000788227
1426.5000	0.000786717
1426.0000	0.000791806
1425.5000	0.00079095
1425.0000	0.000784267
1424.5000	0.000776606
1424.0000	0.000771856
1423.5000	0.000767558
1423.0000	0.000767508
1422.5000	0.000766338
1422.0000	0.000775954
1421.5000	0.000785316
1421.0000	0.000802399
1420.5000	0.000812915
1420.0000	0.000823676
1419.5000	0.000826043
1419.0000	0.00082474
1418.5000	0.000826002
1418.0000	0.000843087
1417.5000	0.000860861
1417.0000	0.00090382
1416.5000	0.000924019
1416.0000	0.000944687
1415.5000	0.000944831
1415.0000	0.000934277
1414.5000	0.000923407
1414.0000	0.000909804
1413.5000	0.000907678
1413.0000	0.000915189
1412.5000	0.000935297
1412.0000	0.000957053
1411.5000	0.000954956
1411.0000	0.000929476
1410.5000	0.00090045
1410.0000	0.00087817
1409.5000	0.000866508
1409.0000	0.000862979
1408.5000	0.000863564
1408.0000	0.000901913
1407.5000	0.000943837
1407.0000	0.00100563
1406.5000	0.00102218
1406.0000	0.000998019
1405.5000	0.00098235
1405.0000	0.00096417
1404.5000	0.000966672
1404.0000	0.000964431
1403.5000	0.000936803
1403.0000	0.00089924
1402.5000	0.000872877
1402.0000	0.000832547
1401.5000	0.000792422
1401.0000	0.0007115
1400.5000	0.000664089
1400.0000	0.000628341
1399.5000	0.000624419
1399.0000	0.000640974
1398.5000	0.000646207
1398.0000	0.000627757
1397.5000	0.000625699
1397.0000	0.000644369
1396.5000	0.000657812
1396.0000	0.000680018
1395.5000	0.000692516
1395.0000	0.000735366
1394.5000	0.00075736
1394.0000	0.000775037
1393.5000	0.000783862
1393.0000	0.00077702
1392.5000	0.000763869
1392.0000	0.000774275
1391.5000	0.00079155
1391.0000	0.000825283
1390.5000	0.000847001
1390.0000	0.000865215
1389.5000	0.000872227
1389.0000	0.000856875
1388.5000	0.000845573
1388.0000	0.00086953
1387.5000	0.00088376
1387.0000	0.000895505
1386.5000	0.00089611
1386.0000	0.000884007
1385.5000	0.000874692
1385.0000	0.000871373
1384.5000	0.000879819
1384.0000	0.000934741
1383.5000	0.000983837
1383.0000	0.00106279
1382.5000	0.00109204
1382.0000	0.00108118
1381.5000	0.0010537
1381.0000	0.00102709
1380.5000	0.00101996
1380.0000	0.00102605
1379.5000	0.00103506
1379.0000	0.00104284
1378.5000	0.00104026
1378.0000	0.000996167
1377.5000	0.00094677
1377.0000	0.000866239
1376.5000	0.000823807
1376.0000	0.000797188
1375.5000	0.000782748
1375.0000	0.000758726
1374.5000	0.000737435
1374.0000	0.000709534
1373.5000	0.000701244
1373.0000	0.000690981
1372.5000	0.00068636
1372.0000	0.00069243
1371.5000	0.00071232
1371.0000	0.000751246
1370.5000	0.000773483
1370.0000	0.000791259
1369.5000	0.000796481
1369.0000	0.000813996
1368.5000	0.000840129
1368.0000	0.000900409
1367.5000	0.000935222
1367.0000	0.000952902
1366.5000	0.000939027
1366.0000	0.000885643
1365.5000	0.000831588
1365.0000	0.000763344
1364.5000	0.000740293
1364.0000	0.000722506
1363.5000	0.000710425
1363.0000	0.000704457
1362.5000	0.000710831
1362.0000	0.000720958
1361.5000	0.000735278
1361.0000	0.000775299
1360.5000	0.000796783
1360.0000	0.000830477
1359.5000	0.000848287
1359.0000	0.000896134
1358.5000	0.000925471
1358.0000	0.000938884
1357.5000	0.000938594
1357.0000	0.000945732
1356.5000	0.000964537
1356.0000	0.000987348
1355.5000	0.000987446
1355.0000	0.000967454
1354.5000	0.000944184
1354.0000	0.000949934
1353.5000	0.000971359
1353.0000	0.00101852
1352.5000	0.00103421
1352.0000	0.00103025
1351.5000	0.00102119
1351.0000	0.00100987
1350.5000	0.00101477
1350.0000	0.00101083
1349.5000	0.000994499
1349.0000	0.000960756
1348.5000	0.000945017
1348.0000	0.000940011
1347.5000	0.000936525
1347.0000	0.000925394
1346.5000	0.000925156
1346.0000	0.000926703
1345.5000	0.000926308
1345.0000	0.000922138
1344.5000	0.000916255
1344.0000	0.000912853
1343.5000	0.000909679
1343.0000	0.000910672
1342.5000	0.000916294
1342.0000	0.000920682
1341.5000	0.000920086
1341.0000	0.000921735
1340.5000	0.000922737
1340.0000	0.000919459
1339.5000	0.000920518
1339.0000	0.00091983
1338.5000	0.000920996
1338.0000	0.000921182
1337.5000	0.000920389
1337.0000	0.000922978
1336.5000	0.000923678
1336.0000	0.000923055
1335.5000	0.000923059
1335.0000	0.000921367
1334.5000	0.000919854
1334.0000	0.000919189
1333.5000	0.000920552
1333.0000	0.000923497
1332.5000	0.000925412
1332.0000	0.000929172
1331.5000	0.000932542
1331.0000	0.000935573
1330.5000	0.000937114
1330.0000	0.000938384
1329.5000	0.00094115
1329.0000	0.000944411
1328.5000	0.000946439
1328.0000	0.000950671
1327.5000	0.000953126
1327.0000	0.000954069
1326.5000	0.000953695
1326.0000	0.000954577
1325.5000	0.000956277
1325.0000	0.00095789
1324.5000	0.000958823
1324.0000	0.000957915
1323.5000	0.000958833
1323.0000	0.000958503
1322.5000	0.000960052
1322.0000	0.000962077
1321.5000	0.000963033
1321.0000	0.00096512
1320.5000	0.000967746
1320.0000	0.000973831
1319.5000	0.000976896
1319.0000	0.00097779
1318.5000	0.00097807
1318.0000	0.000979474
1317.5000	0.000978919
1317.0000	0.000978678
1316.5000	0.000981825
1316.0000	0.000983158
1315.5000	0.000984319
1315.0000	0.000985438
1314.5000	0.000988798
1314.0000	0.0009922
1313.5000	0.000992933
1313.0000	0.000992917
1312.5000	0.000993434
1312.0000	0.000991773
1311.5000	0.000992892
1311.0000	0.000996565
1310.5000	0.00100019
1310.0000	0.00100145
1309.5000	0.00100226
1309.0000	0.00100588
1308.5000	0.00100608
1308.0000	0.00100097
1307.5000	0.000999563
1307.0000	0.000996968
1306.5000	0.00099939
1306.0000	0.00100093
1305.5000	0.00100367
1305.0000	0.00100833
1304.5000	0.00100916
1304.0000	0.00100452
1303.5000	0.0010068
1303.0000	0.00100689
1302.5000	0.00100761
1302.0000	0.00100721
1301.5000	0.00101128
1301.0000	0.00101496
1300.5000	0.00101677
1300.0000	0.00101464
1299.5000	0.00101513
1299.0000	0.00101584
1298.5000	0.0010145
1298.0000	0.00101569
1297.5000	0.00101715
1297.0000	0.00101675
1296.5000	0.00101423
1296.0000	0.00101399
1295.5000	0.00101651
1295.0000	0.00101526
1294.5000	0.00101627
1294.0000	0.00101857
1293.5000	0.00101858
1293.0000	0.00102031
1292.5000	0.00102052
1292.0000	0.0010253
1291.5000	0.00102652
1291.0000	0.0010302
1290.5000	0.00103427
1290.0000	0.00104033
1289.5000	0.00104458
1289.0000	0.00104257
1288.5000	0.00104368
1288.0000	0.00104362
1287.5000	0.00104488
1287.0000	0.00104536
1286.5000	0.00104718
1286.0000	0.00104692
1285.5000	0.00104656
1285.0000	0.00104596
1284.5000	0.0010499
1284.0000	0.00104814
1283.5000	0.00105067
1283.0000	0.00104952
1282.5000	0.00105235
1282.0000	0.00105371
1281.5000	0.00105586
1281.0000	0.00105698
1280.5000	0.00106279
1280.0000	0.00106366
1279.5000	0.00106532
1279.0000	0.00107165
1278.5000	0.00107356
1278.0000	0.00106973
1277.5000	0.00106943
1277.0000	0.00107223
1276.5000	0.00107595
1276.0000	0.00107849
1275.5000	0.0010805
1275.0000	0.00108043
1274.5000	0.00108247
1274.0000	0.00107962
1273.5000	0.00108327
1273.0000	0.00108478
1272.5000	0.00108688
1272.0000	0.00108668
1271.5000	0.00109297
1271.0000	0.00109532
1270.5000	0.00109594
1270.0000	0.00109411
1269.5000	0.00109383
1269.0000	0.00109556
1268.5000	0.00109821
1268.0000	0.00109998
1267.5000	0.00110321
1267.0000	0.00110277
1266.5000	0.00110331
1266.0000	0.00110046
1265.5000	0.00110262
1265.0000	0.00110149
1264.5000	0.00110261
1264.0000	0.00110508
1263.5000	0.00110735
1263.0000	0.00111241
1262.5000	0.001113
1262.0000	0.00111265
1261.5000	0.00111641
1261.0000	0.00111584
1260.5000	0.00111954
1260.0000	0.00112365
1259.5000	0.00112696
1259.0000	0.00113064
1258.5000	0.00113435
1258.0000	0.00113425
1257.5000	0.00113531
1257.0000	0.00113553
1256.5000	0.00113741
1256.0000	0.00113853
1255.5000	0.00113953
1255.0000	0.0011386
1254.5000	0.00114124
1254.0000	0.00113875
1253.5000	0.00113871
1253.0000	0.00113916
1252.5000	0.00114089
1252.0000	0.00114108
1251.5000	0.00114511
1251.0000	0.00114917
1250.5000	0.00115072
1250.0000	0.00114935
1249.5000	0.00115256
1249.0000	0.00115645
1248.5000	0.00115973
1248.0000	0.00115945
1247.5000	0.00116183
1247.0000	0.00116743
1246.5000	0.00116948
1246.0000	0.00117093
1245.5000	0.00117267
1245.0000	0.00117102
1244.5000	0.00117169
1244.0000	0.00117406
1243.5000	0.00117535
1243.0000	0.00117717
1242.5000	0.00117862
1242.0000	0.00118254
1241.5000	0.00118464
1241.0000	0.00118449
1240.5000	0.00118601
1240.0000	0.0011837
1239.5000	0.00118365
1239.0000	0.00118737
1238.5000	0.00119022
1238.0000	0.00119179
1237.5000	0.0011919
1237.0000	0.00119194
1236.5000	0.00118996
1236.0000	0.001188
1235.5000	0.00118827
1235.0000	0.00118961
1234.5000	0.00119218
1234.0000	0.00119561
1233.5000	0.00119939
1233.0000	0.00119903
1232.5000	0.00119877
1232.0000	0.00119803
1231.5000	0.00120009
1231.0000	0.00120552
1230.5000	0.00120923
1230.0000	0.00121363
1229.5000	0.00121509
1229.0000	0.00121955
1228.5000	0.00122201
1228.0000	0.00122643
1227.5000	0.00122585
1227.0000	0.00122765
1226.5000	0.00123115
1226.0000	0.00123592
1225.5000	0.00123839
1225.0000	0.00124044
1224.5000	0.00123747
1224.0000	0.00123834
1223.5000	0.00123995
1223.0000	0.00124481
1222.5000	0.00124536
1222.0000	0.00124833
1221.5000	0.00124714
1221.0000	0.00124801
1220.5000	0.00124813
1220.0000	0.00125176
1219.5000	0.00125091
1219.0000	0.00125149
1218.5000	0.00125449
1218.0000	0.00125971
1217.5000	0.00126223
1217.0000	0.00126491
1216.5000	0.00126513
1216.0000	0.00126368
1215.5000	0.00126214
1215.0000	0.00126591
1214.5000	0.00126834
1214.0000	0.00127272
1213.5000	0.00127495
1213.0000	0.00127749
1212.5000	0.00128006
1212.0000	0.00128143
1211.5000	0.00128132
1211.0000	0.0012842
1210.5000	0.00128306
1210.0000	0.00128589
1209.5000	0.0012878
1209.0000	0.00129202
1208.5000	0.00129152
1208.0000	0.00129312
1207.5000	0.00129125
1207.0000	0.00129243
1206.5000	0.00129417
1206.0000	0.00129766
1205.5000	0.00129785
1205.0000	0.00130104
1204.5000	0.00130344
1204.0000	0.00130394
1203.5000	0.00130112
1203.0000	0.00130477
1202.5000	0.0013062
1202.0000	0.00130868
1201.5000	0.00130841
1201.0000	0.0013154
1200.5000	0.00131394
1200.0000	0.00131012
1199.5000	0.00131234
1199.0000	0.00131459
1198.5000	0.00131591
1198.0000	0.00131722
1197.5000	0.00131785
1197.0000	0.00132237
1196.5000	0.00132345
1196.0000	0.00132564
1195.5000	0.00132826
1195.0000	0.00133302
1194.5000	0.00133651
1194.0000	0.00133595
1193.5000	0.00133824
1193.0000	0.00133931
1192.5000	0.00134229
1192.0000	0.00134746
1191.5000	0.00135157
1191.0000	0.00135357
1190.5000	0.00135594
1190.0000	0.0013581
1189.5000	0.00135944
1189.0000	0.00136033
1188.5000	0.0013603
1188.0000	0.00136143
1187.5000	0.00136928
1187.0000	0.00137509
1186.5000	0.00137782
1186.0000	0.00137962
1185.5000	0.00138271
1185.0000	0.00138404
1184.5000	0.0013857
1184.0000	0.00138688
1183.5000	0.00138821
1183.0000	0.00138871
1182.5000	0.00138905
1182.0000	0.00138776
1181.5000	0.00138717
1181.0000	0.00138489
1180.5000	0.00138644
1180.0000	0.0013864
1179.5000	0.00138832
1179.0000	0.00138861
1178.5000	0.00139051
1178.0000	0.00139259
1177.5000	0.00139801
1177.0000	0.00140073
1176.5000	0.00140476
1176.0000	0.00141321
1175.5000	0.00141399
1175.0000	0.00141689
1174.5000	0.00141985
1174.0000	0.00142347
1173.5000	0.0014248
1173.0000	0.00142693
1172.5000	0.00142913
1172.0000	0.00143079
1171.5000	0.00143447
1171.0000	0.00143675
1170.5000	0.00144048
1170.0000	0.00144522
1169.5000	0.00144627
1169.0000	0.00145165
1168.5000	0.00145318
1168.0000	0.0014542
1167.5000	0.00145428
1167.0000	0.00145808
1166.5000	0.00146046
1166.0000	0.00146569
1165.5000	0.00146591
1165.0000	0.00146438
1164.5000	0.00146407
1164.0000	0.00146369
1163.5000	0.00146312
1163.0000	0.00146562
1162.5000	0.00146895
1162.0000	0.00147452
1161.5000	0.00147575
1161.0000	0.00147847
1160.5000	0.00148299
1160.0000	0.00148284
1159.5000	0.00148228
1159.0000	0.00148814
1158.5000	0.00149076
1158.0000	0.00149316
1157.5000	0.00149403
1157.0000	0.00149839
1156.5000	0.00150078
1156.0000	0.00150147
1155.5000	0.00150184
1155.0000	0.00150671
1154.5000	0.00151246
1154.0000	0.00151643
1153.5000	0.00152071
1153.0000	0.00152299
1152.5000	0.00152354
1152.0000	0.0015258
1151.5000	0.00152842
1151.0000	0.00153301
1150.5000	0.00153408
1150.0000	0.00153708
1149.5000	0.00153875
1149.0000	0.00153893
1148.5000	0.00153912
1148.0000	0.00153431
1147.5000	0.0015343
1147.0000	0.00153926
1146.5000	0.00154247
1146.0000	0.0015465
1145.5000	0.00154892
1145.0000	0.00154864
1144.5000	0.00155153
1144.0000	0.00155411
1143.5000	0.00155552
1143.0000	0.00155949
