TITLE	N2200
DATA TYPE	ULTRAVIOLET SPECTRUM
ORIGIN	JASCO
OWNER	
DATE	21/10/25
TIME	14:45:38
SPECTROMETER/DATA SYSTEM	
LOCALE	1033
RESOLUTION	
DELTAX	-0.5
XUNITS	NANOMETERS
YUNITS	ABSORBANCE
FIRSTX	 1600.0000
LASTX	  200.0000
NPOINTS	    2801
FIRSTY	     0.00131
MAXY	     0.15696
MINY	     0.00131
XYDATA
1600.0000	0.00131171
1599.5000	0.00131459
1599.0000	0.00131417
1598.5000	0.00131659
1598.0000	0.0013197
1597.5000	0.00132359
1597.0000	0.00132933
1596.5000	0.00132883
1596.0000	0.00132918
1595.5000	0.0013281
1595.0000	0.00132947
1594.5000	0.00132998
1594.0000	0.00133476
1593.5000	0.00133757
1593.0000	0.00133948
1592.5000	0.0013419
1592.0000	0.00134476
1591.5000	0.00134393
1591.0000	0.00134377
1590.5000	0.00134258
1590.0000	0.0013451
1589.5000	0.00134673
1589.0000	0.00135173
1588.5000	0.0013537
1588.0000	0.00135761
1587.5000	0.00135828
1587.0000	0.00136106
1586.5000	0.00136245
1586.0000	0.00136326
1585.5000	0.00136383
1585.0000	0.00136961
1584.5000	0.00137352
1584.0000	0.00137939
1583.5000	0.00138126
1583.0000	0.0013876
1582.5000	0.00139236
1582.0000	0.00139738
1581.5000	0.00140003
1581.0000	0.00139886
1580.5000	0.0013999
1580.0000	0.00140005
1579.5000	0.00140047
1579.0000	0.00140133
1578.5000	0.00140002
1578.0000	0.0013985
1577.5000	0.00139974
1577.0000	0.00140259
1576.5000	0.00140226
1576.0000	0.00140162
1575.5000	0.00140175
1575.0000	0.00140415
1574.5000	0.00140683
1574.0000	0.00141081
1573.5000	0.00141281
1573.0000	0.00141645
1572.5000	0.00141846
1572.0000	0.00142371
1571.5000	0.00142585
1571.0000	0.00142777
1570.5000	0.0014293
1570.0000	0.00143022
1569.5000	0.0014271
1569.0000	0.00143093
1568.5000	0.00143109
1568.0000	0.00143277
1567.5000	0.00143597
1567.0000	0.00144132
1566.5000	0.00144186
1566.0000	0.00144369
1565.5000	0.00144427
1565.0000	0.00144398
1564.5000	0.00144515
1564.0000	0.00144822
1563.5000	0.00145218
1563.0000	0.00145567
1562.5000	0.00145287
1562.0000	0.00145497
1561.5000	0.00145377
1561.0000	0.00145037
1560.5000	0.00144993
1560.0000	0.00145121
1559.5000	0.00145424
1559.0000	0.00145417
1558.5000	0.00145485
1558.0000	0.00145848
1557.5000	0.00145809
1557.0000	0.00145755
1556.5000	0.00145888
1556.0000	0.00146573
1555.5000	0.00146832
1555.0000	0.00147274
1554.5000	0.00147422
1554.0000	0.00147909
1553.5000	0.00148283
1553.0000	0.00148732
1552.5000	0.00148983
1552.0000	0.0014953
1551.5000	0.00149795
1551.0000	0.00149941
1550.5000	0.00150013
1550.0000	0.00150273
1549.5000	0.00150382
1549.0000	0.00150568
1548.5000	0.00150892
1548.0000	0.00151096
1547.5000	0.0015106
1547.0000	0.00150982
1546.5000	0.00151049
1546.0000	0.00151338
1545.5000	0.00151383
1545.0000	0.0015151
1544.5000	0.00151745
1544.0000	0.00151781
1543.5000	0.00151952
1543.0000	0.00152096
1542.5000	0.00152211
1542.0000	0.00152122
1541.5000	0.00152319
1541.0000	0.00152629
1540.5000	0.00152797
1540.0000	0.00153046
1539.5000	0.00153183
1539.0000	0.00153453
1538.5000	0.00153774
1538.0000	0.00154168
1537.5000	0.0015444
1537.0000	0.0015514
1536.5000	0.00155364
1536.0000	0.00155797
1535.5000	0.00156174
1535.0000	0.00156724
1534.5000	0.00156952
1534.0000	0.0015705
1533.5000	0.00157045
1533.0000	0.00157085
1532.5000	0.00156768
1532.0000	0.00156983
1531.5000	0.00157241
1531.0000	0.00157446
1530.5000	0.00157322
1530.0000	0.00157695
1529.5000	0.00157653
1529.0000	0.00157664
1528.5000	0.00157755
1528.0000	0.00157946
1527.5000	0.00158249
1527.0000	0.00158758
1526.5000	0.00158969
1526.0000	0.00159422
1525.5000	0.00159102
1525.0000	0.00159187
1524.5000	0.00159302
1524.0000	0.00159728
1523.5000	0.0015989
1523.0000	0.00160269
1522.5000	0.00160226
1522.0000	0.00160017
1521.5000	0.00160132
1521.0000	0.00160397
1520.5000	0.00160634
1520.0000	0.00160554
1519.5000	0.00160781
1519.0000	0.00161463
1518.5000	0.0016195
1518.0000	0.00161959
1517.5000	0.00162154
1517.0000	0.00162249
1516.5000	0.00162421
1516.0000	0.00162812
1515.5000	0.00163103
1515.0000	0.00163516
1514.5000	0.00163842
1514.0000	0.00164291
1513.5000	0.00164712
1513.0000	0.0016486
1512.5000	0.00165126
1512.0000	0.00165267
1511.5000	0.001657
1511.0000	0.00165694
1510.5000	0.00166102
1510.0000	0.00166458
1509.5000	0.00166548
1509.0000	0.00166758
1508.5000	0.00166764
1508.0000	0.00166764
1507.5000	0.00166819
1507.0000	0.00166843
1506.5000	0.00166969
1506.0000	0.00167335
1505.5000	0.00167548
1505.0000	0.00167552
1504.5000	0.00167949
1504.0000	0.00168032
1503.5000	0.00167942
1503.0000	0.00168206
1502.5000	0.00168602
1502.0000	0.00168978
1501.5000	0.00169098
1501.0000	0.00169505
1500.5000	0.00169862
1500.0000	0.0016996
1499.5000	0.00169876
1499.0000	0.00170107
1498.5000	0.00170306
1498.0000	0.00170313
1497.5000	0.00170466
1497.0000	0.00170472
1496.5000	0.00170859
1496.0000	0.00170696
1495.5000	0.00170619
1495.0000	0.0017081
1494.5000	0.00170941
1494.0000	0.00170981
1493.5000	0.00171163
1493.0000	0.00171075
1492.5000	0.00171172
1492.0000	0.00171235
1491.5000	0.00171458
1491.0000	0.00171781
1490.5000	0.00172143
1490.0000	0.00172115
1489.5000	0.00172274
1489.0000	0.00172641
1488.5000	0.00172887
1488.0000	0.0017318
1487.5000	0.00173474
1487.0000	0.00173767
1486.5000	0.0017397
1486.0000	0.00173863
1485.5000	0.00174009
1485.0000	0.00174017
1484.5000	0.00174061
1484.0000	0.00174143
1483.5000	0.00174687
1483.0000	0.00174885
1482.5000	0.00175059
1482.0000	0.00175266
1481.5000	0.00175397
1481.0000	0.00175448
1480.5000	0.00175675
1480.0000	0.00176045
1479.5000	0.00176569
1479.0000	0.00176648
1478.5000	0.00177159
1478.0000	0.00178082
1477.5000	0.00178217
1477.0000	0.00177883
1476.5000	0.00177912
1476.0000	0.00177903
1475.5000	0.00178037
1475.0000	0.00177889
1474.5000	0.00178078
1474.0000	0.00178072
1473.5000	0.00178263
1473.0000	0.0017874
1472.5000	0.00179238
1472.0000	0.00179798
1471.5000	0.00179815
1471.0000	0.00180168
1470.5000	0.0018099
1470.0000	0.00181368
1469.5000	0.00181635
1469.0000	0.00182037
1468.5000	0.00182796
1468.0000	0.00183337
1467.5000	0.00183712
1467.0000	0.00183978
1466.5000	0.00184227
1466.0000	0.0018435
1465.5000	0.00184237
1465.0000	0.00184254
1464.5000	0.00184627
1464.0000	0.00184402
1463.5000	0.00184727
1463.0000	0.00185074
1462.5000	0.00185395
1462.0000	0.00184997
1461.5000	0.00185264
1461.0000	0.00185319
1460.5000	0.00185319
1460.0000	0.00185311
1459.5000	0.00185653
1459.0000	0.00185675
1458.5000	0.00185934
1458.0000	0.00185905
1457.5000	0.00186314
1457.0000	0.00186655
1456.5000	0.00186673
1456.0000	0.00186518
1455.5000	0.00186625
1455.0000	0.00186331
1454.5000	0.00186345
1454.0000	0.00186638
1453.5000	0.00186806
1453.0000	0.00187138
1452.5000	0.00187609
1452.0000	0.00188294
1451.5000	0.00188688
1451.0000	0.00188644
1450.5000	0.00188519
1450.0000	0.00188285
1449.5000	0.00188761
1449.0000	0.00189011
1448.5000	0.00189871
1448.0000	0.0019112
1447.5000	0.00191414
1447.0000	0.001918
1446.5000	0.00191719
1446.0000	0.00191653
1445.5000	0.00191696
1445.0000	0.00192079
1444.5000	0.00192801
1444.0000	0.00193331
1443.5000	0.00193685
1443.0000	0.00193805
1442.5000	0.00194397
1442.0000	0.00194173
1441.5000	0.00194007
1441.0000	0.0019412
1440.5000	0.00194215
1440.0000	0.00194574
1439.5000	0.00194936
1439.0000	0.00194725
1438.5000	0.00194786
1438.0000	0.00194225
1437.5000	0.0019465
1437.0000	0.00195299
1436.5000	0.00195957
1436.0000	0.00196262
1435.5000	0.00196073
1435.0000	0.00196405
1434.5000	0.00196625
1434.0000	0.00197021
1433.5000	0.00197168
1433.0000	0.00197623
1432.5000	0.00197959
1432.0000	0.00198086
1431.5000	0.00198691
1431.0000	0.00199189
1430.5000	0.0019932
1430.0000	0.0019909
1429.5000	0.00199445
1429.0000	0.00199978
1428.5000	0.00199782
1428.0000	0.00199278
1427.5000	0.00199268
1427.0000	0.00199414
1426.5000	0.00199511
1426.0000	0.00200589
1425.5000	0.00201272
1425.0000	0.00201156
1424.5000	0.00201167
1424.0000	0.0020134
1423.5000	0.00201331
1423.0000	0.00201292
1422.5000	0.00201389
1422.0000	0.00202134
1421.5000	0.00203022
1421.0000	0.00203664
1420.5000	0.00204272
1420.0000	0.00204845
1419.5000	0.00204712
1419.0000	0.00204171
1418.5000	0.00203806
1418.0000	0.00203564
1417.5000	0.00203554
1417.0000	0.0020435
1416.5000	0.00205198
1416.0000	0.00206114
1415.5000	0.00206125
1415.0000	0.00205708
1414.5000	0.00205778
1414.0000	0.00205027
1413.5000	0.0020464
1413.0000	0.00204239
1412.5000	0.00204751
1412.0000	0.00206314
1411.5000	0.00206966
1411.0000	0.00207523
1410.5000	0.00207534
1410.0000	0.00207525
1409.5000	0.00207465
1409.0000	0.00207862
1408.5000	0.00208237
1408.0000	0.00208512
1407.5000	0.00209393
1407.0000	0.00211209
1406.5000	0.00212379
1406.0000	0.00213367
1405.5000	0.00213411
1405.0000	0.00213168
1404.5000	0.00212954
1404.0000	0.00212552
1403.5000	0.00212034
1403.0000	0.00212789
1402.5000	0.00213674
1402.0000	0.00215248
1401.5000	0.00216173
1401.0000	0.0021628
1400.5000	0.00215779
1400.0000	0.0021385
1399.5000	0.00213016
1399.0000	0.0021265
1398.5000	0.00213294
1398.0000	0.00214596
1397.5000	0.002162
1397.0000	0.00218086
1396.5000	0.00218001
1396.0000	0.00217001
1395.5000	0.00216044
1395.0000	0.00216157
1394.5000	0.00216845
1394.0000	0.00218945
1393.5000	0.00220576
1393.0000	0.00221761
1392.5000	0.00221777
1392.0000	0.00220901
1391.5000	0.00220126
1391.0000	0.00218573
1390.5000	0.00218328
1390.0000	0.00219387
1389.5000	0.00220455
1389.0000	0.00220531
1388.5000	0.00219819
1388.0000	0.0021889
1387.5000	0.00218533
1387.0000	0.00217785
1386.5000	0.0021749
1386.0000	0.00217867
1385.5000	0.0021867
1385.0000	0.00220266
1384.5000	0.00221142
1384.0000	0.00221625
1383.5000	0.00221455
1383.0000	0.00221924
1382.5000	0.00223256
1382.0000	0.00225226
1381.5000	0.00225659
1381.0000	0.00225452
1380.5000	0.00226252
1380.0000	0.00227122
1379.5000	0.00227511
1379.0000	0.00227579
1378.5000	0.00227447
1378.0000	0.00226985
1377.5000	0.00226769
1377.0000	0.00226577
1376.5000	0.00225971
1376.0000	0.0022477
1375.5000	0.00224031
1375.0000	0.00223179
1374.5000	0.00222775
1374.0000	0.0022204
1373.5000	0.00222128
1373.0000	0.00222452
1372.5000	0.00222366
1372.0000	0.00221802
1371.5000	0.00221334
1371.0000	0.00221171
1370.5000	0.00221054
1370.0000	0.0022215
1369.5000	0.0022272
1369.0000	0.00223076
1368.5000	0.00223105
1368.0000	0.00223267
1367.5000	0.0022386
1367.0000	0.00224409
1366.5000	0.00224897
1366.0000	0.00225273
1365.5000	0.00225128
1365.0000	0.00224785
1364.5000	0.00224967
1364.0000	0.00225733
1363.5000	0.00226007
1363.0000	0.00226705
1362.5000	0.00227742
1362.0000	0.00230354
1361.5000	0.00231703
1361.0000	0.0023334
1360.5000	0.00233738
1360.0000	0.00234436
1359.5000	0.00235322
1359.0000	0.00237158
1358.5000	0.00238489
1358.0000	0.00239443
1357.5000	0.00239799
1357.0000	0.00240578
1356.5000	0.00240784
1356.0000	0.00241277
1355.5000	0.002413
1355.0000	0.00241683
1354.5000	0.00241449
1354.0000	0.00242044
1353.5000	0.00242392
1353.0000	0.00243067
1352.5000	0.00243497
1352.0000	0.0024352
1351.5000	0.00243505
1351.0000	0.00242979
1350.5000	0.00242668
1350.0000	0.0024262
1349.5000	0.00242448
1349.0000	0.00242331
1348.5000	0.00242171
1348.0000	0.00242635
1347.5000	0.00242789
1347.0000	0.0024252
1346.5000	0.00242832
1346.0000	0.00243292
1345.5000	0.00243381
1345.0000	0.00243529
1344.5000	0.00243357
1344.0000	0.00243629
1343.5000	0.00243607
1343.0000	0.00244317
1342.5000	0.00244513
1342.0000	0.00245075
1341.5000	0.00245202
1341.0000	0.00245508
1340.5000	0.00245759
1340.0000	0.00245868
1339.5000	0.00246264
1339.0000	0.00246992
1338.5000	0.00247298
1338.0000	0.00247811
1337.5000	0.00247996
1337.0000	0.00248276
1336.5000	0.00248155
1336.0000	0.0024826
1335.5000	0.002484
1335.0000	0.00248293
1334.5000	0.00248355
1334.0000	0.0024871
1333.5000	0.0024899
1333.0000	0.0024912
1332.5000	0.00249072
1332.0000	0.00249591
1331.5000	0.00249847
1331.0000	0.00250022
1330.5000	0.00250461
1330.0000	0.00250857
1329.5000	0.00251326
1329.0000	0.0025184
1328.5000	0.00252299
1328.0000	0.00252943
1327.5000	0.0025323
1327.0000	0.00253692
1326.5000	0.0025396
1326.0000	0.00254637
1325.5000	0.00255044
1325.0000	0.0025563
1324.5000	0.00256014
1324.0000	0.0025614
1323.5000	0.00256507
1323.0000	0.00256877
1322.5000	0.00257116
1322.0000	0.00257436
1321.5000	0.00257767
1321.0000	0.00258236
1320.5000	0.00258639
1320.0000	0.00259262
1319.5000	0.00259554
1319.0000	0.00259639
1318.5000	0.00259809
1318.0000	0.00260449
1317.5000	0.00260732
1317.0000	0.00261007
1316.5000	0.00261152
1316.0000	0.00261401
1315.5000	0.0026162
1315.0000	0.0026193
1314.5000	0.00262321
1314.0000	0.00262615
1313.5000	0.00262896
1313.0000	0.0026323
1312.5000	0.00263462
1312.0000	0.00263817
1311.5000	0.0026382
1311.0000	0.00264192
1310.5000	0.00264655
1310.0000	0.00265367
1309.5000	0.00265619
1309.0000	0.00265923
1308.5000	0.00266056
1308.0000	0.00266283
1307.5000	0.00266368
1307.0000	0.00266509
1306.5000	0.00266868
1306.0000	0.00267282
1305.5000	0.00267534
1305.0000	0.00268186
1304.5000	0.0026848
1304.0000	0.00268511
1303.5000	0.0026867
1303.0000	0.00268889
1302.5000	0.00269166
1302.0000	0.00269506
1301.5000	0.00269675
1301.0000	0.00270182
1300.5000	0.00270307
1300.0000	0.00270299
1299.5000	0.00270574
1299.0000	0.00270814
1298.5000	0.00270909
1298.0000	0.00271289
1297.5000	0.00271482
1297.0000	0.0027195
1296.5000	0.00272242
1296.0000	0.00272264
1295.5000	0.00272743
1295.0000	0.00273147
1294.5000	0.00273408
1294.0000	0.00273757
1293.5000	0.00274115
1293.0000	0.00274475
1292.5000	0.00274981
1292.0000	0.00275341
1291.5000	0.00275862
1291.0000	0.00276373
1290.5000	0.00276749
1290.0000	0.00277124
1289.5000	0.00277842
1289.0000	0.00278069
1288.5000	0.00278453
1288.0000	0.00278898
1287.5000	0.0027939
1287.0000	0.00279572
1286.5000	0.00279748
1286.0000	0.0027999
1285.5000	0.00280018
1285.0000	0.0028005
1284.5000	0.00280502
1284.0000	0.00280915
1283.5000	0.00281406
1283.0000	0.00281691
1282.5000	0.00281928
1282.0000	0.00282464
1281.5000	0.0028269
1281.0000	0.00283127
1280.5000	0.00283865
1280.0000	0.00284532
1279.5000	0.00284946
1279.0000	0.0028542
1278.5000	0.00285756
1278.0000	0.00285916
1277.5000	0.00286225
1277.0000	0.00286573
1276.5000	0.00287021
1276.0000	0.00287734
1275.5000	0.00288059
1275.0000	0.00288554
1274.5000	0.00288828
1274.0000	0.00288927
1273.5000	0.0028933
1273.0000	0.00289775
1272.5000	0.00290559
1272.0000	0.00290972
1271.5000	0.00291475
1271.0000	0.00291976
1270.5000	0.00292573
1270.0000	0.0029278
1269.5000	0.00293223
1269.0000	0.00293812
1268.5000	0.00294357
1268.0000	0.00295097
1267.5000	0.00295655
1267.0000	0.00295949
1266.5000	0.00296307
1266.0000	0.00296229
1265.5000	0.00296952
1265.0000	0.0029754
1264.5000	0.00297657
1264.0000	0.00297924
1263.5000	0.00298353
1263.0000	0.00298398
1262.5000	0.00298752
1262.0000	0.00298587
1261.5000	0.00298981
1261.0000	0.00299207
1260.5000	0.00299622
1260.0000	0.00300388
1259.5000	0.00300869
1259.0000	0.00301059
1258.5000	0.00301494
1258.0000	0.00302112
1257.5000	0.0030262
1257.0000	0.00302827
1256.5000	0.0030331
1256.0000	0.00303716
1255.5000	0.00304079
1255.0000	0.00304057
1254.5000	0.00304532
1254.0000	0.0030482
1253.5000	0.003052
1253.0000	0.00305236
1252.5000	0.00305774
1252.0000	0.00305947
1251.5000	0.00306243
1251.0000	0.00306508
1250.5000	0.00306846
1250.0000	0.00307188
1249.5000	0.00307774
1249.0000	0.0030827
1248.5000	0.00308901
1248.0000	0.00309313
1247.5000	0.00309629
1247.0000	0.00310085
1246.5000	0.0031089
1246.0000	0.00311223
1245.5000	0.00311632
1245.0000	0.00311932
1244.5000	0.00312502
1244.0000	0.00312838
1243.5000	0.00313034
1243.0000	0.00313274
1242.5000	0.00313741
1242.0000	0.00314305
1241.5000	0.00314592
1241.0000	0.00315242
1240.5000	0.00315546
1240.0000	0.00315585
1239.5000	0.00315877
1239.0000	0.00316515
1238.5000	0.00316988
1238.0000	0.00317088
1237.5000	0.00317737
1237.0000	0.00318286
1236.5000	0.00318511
1236.0000	0.00318958
1235.5000	0.00319581
1235.0000	0.00319987
1234.5000	0.00320503
1234.0000	0.00321192
1233.5000	0.00321884
1233.0000	0.00322095
1232.5000	0.00322432
1232.0000	0.00322699
1231.5000	0.00323217
1231.0000	0.00323661
1230.5000	0.0032425
1230.0000	0.00324893
1229.5000	0.00325322
1229.0000	0.0032574
1228.5000	0.0032619
1228.0000	0.00326586
1227.5000	0.00326747
1227.0000	0.0032697
1226.5000	0.00327634
1226.0000	0.0032834
1225.5000	0.00328973
1225.0000	0.00329456
1224.5000	0.00329619
1224.0000	0.0033007
1223.5000	0.00330465
1223.0000	0.00330907
1222.5000	0.00331364
1222.0000	0.00331882
1221.5000	0.0033222
1221.0000	0.00332747
1220.5000	0.00333272
1220.0000	0.00334051
1219.5000	0.00334312
1219.0000	0.00334649
1218.5000	0.00335378
1218.0000	0.00336185
1217.5000	0.00336621
1217.0000	0.00337332
1216.5000	0.00337873
1216.0000	0.00337979
1215.5000	0.00338321
1215.0000	0.0033879
1214.5000	0.0033923
1214.0000	0.00339397
1213.5000	0.00339679
1213.0000	0.00340238
1212.5000	0.00340651
1212.0000	0.00340883
1211.5000	0.00341048
1211.0000	0.00341759
1210.5000	0.00342031
1210.0000	0.00342349
1209.5000	0.003429
1209.0000	0.00343506
1208.5000	0.00344008
1208.0000	0.00344622
1207.5000	0.00345268
1207.0000	0.00345745
1206.5000	0.00346126
1206.0000	0.00346952
1205.5000	0.0034757
1205.0000	0.00348214
1204.5000	0.00348492
1204.0000	0.00348733
1203.5000	0.00348964
1203.0000	0.00349504
1202.5000	0.00349947
1202.0000	0.00350574
1201.5000	0.00350781
1201.0000	0.00351161
1200.5000	0.00351392
1200.0000	0.00352066
1199.5000	0.00352449
1199.0000	0.00353093
1198.5000	0.00353237
1198.0000	0.00353712
1197.5000	0.0035381
1197.0000	0.00354348
1196.5000	0.00354932
1196.0000	0.00355617
1195.5000	0.00356172
1195.0000	0.00356959
1194.5000	0.00357534
1194.0000	0.00357996
1193.5000	0.0035859
1193.0000	0.00359189
1192.5000	0.00359766
1192.0000	0.00360874
1191.5000	0.00361326
1191.0000	0.00361871
1190.5000	0.00362463
1190.0000	0.00362884
1189.5000	0.00363426
1189.0000	0.00364093
1188.5000	0.00364491
1188.0000	0.0036537
1187.5000	0.00366082
1187.0000	0.00366377
1186.5000	0.00366774
1186.0000	0.00367018
1185.5000	0.00367248
1185.0000	0.00367801
1184.5000	0.00368234
1184.0000	0.00368475
1183.5000	0.00368876
1183.0000	0.00369258
1182.5000	0.00369361
1182.0000	0.00369579
1181.5000	0.00369819
1181.0000	0.0037003
1180.5000	0.00370348
1180.0000	0.0037083
1179.5000	0.00371405
1179.0000	0.00372209
1178.5000	0.00372691
1178.0000	0.00373256
1177.5000	0.00374053
1177.0000	0.0037472
1176.5000	0.00375254
1176.0000	0.00376064
1175.5000	0.00376648
1175.0000	0.00377414
1174.5000	0.00378106
1174.0000	0.00378953
1173.5000	0.00379625
1173.0000	0.00380124
1172.5000	0.00380612
1172.0000	0.00381571
1171.5000	0.00382296
1171.0000	0.00382893
1170.5000	0.00383439
1170.0000	0.0038438
1169.5000	0.00385168
1169.0000	0.00386034
1168.5000	0.00386579
1168.0000	0.00386902
1167.5000	0.00387516
1167.0000	0.00388202
1166.5000	0.00388942
1166.0000	0.00389556
1165.5000	0.00389796
1165.0000	0.00389927
1164.5000	0.00390602
1164.0000	0.00391123
1163.5000	0.00391457
1163.0000	0.00392051
1162.5000	0.00392627
1162.0000	0.00393193
1161.5000	0.0039361
1161.0000	0.00394021
1160.5000	0.00394766
1160.0000	0.00395297
1159.5000	0.00395572
1159.0000	0.00396138
1158.5000	0.00396808
1158.0000	0.00397284
1157.5000	0.0039741
1157.0000	0.00397827
1156.5000	0.00398288
1156.0000	0.00398774
1155.5000	0.00399382
1155.0000	0.00400508
1154.5000	0.00401155
1154.0000	0.00401702
1153.5000	0.00402143
1153.0000	0.00402736
1152.5000	0.00403387
1152.0000	0.00404246
1151.5000	0.0040484
1151.0000	0.00405878
1150.5000	0.00406338
1150.0000	0.00407182
1149.5000	0.0040766
1149.0000	0.00408189
1148.5000	0.00408545
1148.0000	0.00409064
1147.5000	0.00409705
1147.0000	0.00410459
1146.5000	0.00411199
1146.0000	0.00411738
1145.5000	0.00412309
1145.0000	0.00412668
1144.5000	0.00413198
1144.0000	0.00413886
1143.5000	0.00414297
1143.0000	0.00414904
1142.5000	0.00415382
1142.0000	0.00416239
1141.5000	0.0041674
1141.0000	0.00417097
1140.5000	0.00417481
1140.0000	0.00417718
1139.5000	0.00418398
1139.0000	0.00418913
1138.5000	0.00419844
1138.0000	0.00421266
1137.5000	0.00421951
1137.0000	0.00422911
1136.5000	0.00423856
1136.0000	0.0042465
1135.5000	0.00425306
1135.0000	0.00425907
1134.5000	0.00426602
1134.0000	0.00427548
1133.5000	0.00428476
1133.0000	0.00429315
1132.5000	0.00430193
1132.0000	0.00430677
1131.5000	0.00430883
1131.0000	0.00431459
1130.5000	0.0043205
1130.0000	0.00432848
1129.5000	0.00433433
1129.0000	0.00434278
