TITLE	N2200
DATA TYPE	ULTRAVIOLET SPECTRUM
ORIGIN	JASCO
OWNER	
DATE	22/02/25
TIME	12:41:00
SPECTROMETER/DATA SYSTEM	
LOCALE	1033
RESOLUTION	
DELTAX	-0.5
XUNITS	NANOMETERS
YUNITS	ABSORBANCE
FIRSTX	 1600.0000
LASTX	  200.0000
NPOINTS	    2801
FIRSTY	     0.00109
MAXY	    10.00000
MINY	    -0.78610
XYDATA
1600.0000	0.00108647
1599.5000	0.00108747
1599.0000	0.00109228
1598.5000	0.00109778
1598.0000	0.00110301
1597.5000	0.00110774
1597.0000	0.00111527
1596.5000	0.00111941
1596.0000	0.00112074
1595.5000	0.00112083
1595.0000	0.00112271
1594.5000	0.00112738
1594.0000	0.00113663
1593.5000	0.00114533
1593.0000	0.00115889
1592.5000	0.00117507
1592.0000	0.0011911
1591.5000	0.00120503
1591.0000	0.00121566
1590.5000	0.00122288
1590.0000	0.00122526
1589.5000	0.00122814
1589.0000	0.0012317
1588.5000	0.00123637
1588.0000	0.00124115
1587.5000	0.00125037
1587.0000	0.00126085
1586.5000	0.00127215
1586.0000	0.0012815
1585.5000	0.00128522
1585.0000	0.0012873
1584.5000	0.00128676
1584.0000	0.00128357
1583.5000	0.00127919
1583.0000	0.00127478
1582.5000	0.00127582
1582.0000	0.00128041
1581.5000	0.00128769
1581.0000	0.00129345
1580.5000	0.00129809
1580.0000	0.00130188
1579.5000	0.00130404
1579.0000	0.00130292
1578.5000	0.00129863
1578.0000	0.00129388
1577.5000	0.00129202
1577.0000	0.00129238
1576.5000	0.00129521
1576.0000	0.00129904
1575.5000	0.001305
1575.0000	0.00131153
1574.5000	0.00131705
1574.0000	0.00132141
1573.5000	0.00132279
1573.0000	0.00132221
1572.5000	0.00132022
1572.0000	0.00132068
1571.5000	0.00132109
1571.0000	0.00132217
1570.5000	0.00132505
1570.0000	0.00132889
1569.5000	0.00133519
1569.0000	0.00134025
1568.5000	0.00134345
1568.0000	0.00134406
1567.5000	0.00134486
1567.0000	0.00134444
1566.5000	0.00134291
1566.0000	0.00134233
1565.5000	0.00134047
1565.0000	0.00134156
1564.5000	0.00134477
1564.0000	0.00134824
1563.5000	0.00135121
1563.0000	0.0013522
1562.5000	0.00135389
1562.0000	0.00135574
1561.5000	0.00135589
1561.0000	0.00135305
1560.5000	0.0013504
1560.0000	0.00134895
1559.5000	0.00134859
1559.0000	0.00134875
1558.5000	0.0013498
1558.0000	0.00135091
1557.5000	0.00135375
1557.0000	0.00135739
1556.5000	0.00135876
1556.0000	0.00135853
1555.5000	0.00135669
1555.0000	0.00135575
1554.5000	0.00135514
1554.0000	0.00135472
1553.5000	0.00135374
1553.0000	0.00135477
1552.5000	0.00135851
1552.0000	0.00136419
1551.5000	0.00136699
1551.0000	0.00136938
1550.5000	0.00137038
1550.0000	0.00136835
1549.5000	0.00136832
1549.0000	0.00136671
1548.5000	0.00136486
1548.0000	0.00136561
1547.5000	0.00136736
1547.0000	0.00137237
1546.5000	0.00137692
1546.0000	0.00137833
1545.5000	0.00137938
1545.0000	0.00137981
1544.5000	0.00137829
1544.0000	0.00137682
1543.5000	0.0013734
1543.0000	0.00137159
1542.5000	0.00137343
1542.0000	0.00137667
1541.5000	0.0013805
1541.0000	0.00138292
1540.5000	0.00138625
1540.0000	0.00138821
1539.5000	0.00138878
1539.0000	0.00138703
1538.5000	0.00138318
1538.0000	0.00138073
1537.5000	0.00138126
1537.0000	0.00138322
1536.5000	0.00138602
1536.0000	0.00138835
1535.5000	0.00139242
1535.0000	0.00139526
1534.5000	0.00139547
1534.0000	0.00139508
1533.5000	0.00139136
1533.0000	0.00138881
1532.5000	0.0013874
1532.0000	0.00138778
1531.5000	0.00138893
1531.0000	0.00139158
1530.5000	0.00139634
1530.0000	0.00140097
1529.5000	0.00140344
1529.0000	0.00140346
1528.5000	0.00140218
1528.0000	0.00139899
1527.5000	0.00139883
1527.0000	0.00139995
1526.5000	0.00140099
1526.0000	0.00140357
1525.5000	0.00140755
1525.0000	0.00141195
1524.5000	0.00141312
1524.0000	0.00141267
1523.5000	0.00141006
1523.0000	0.00140735
1522.5000	0.00140572
1522.0000	0.00140444
1521.5000	0.00140459
1521.0000	0.00140605
1520.5000	0.00140836
1520.0000	0.00141029
1519.5000	0.00141108
1519.0000	0.00140925
1518.5000	0.0014053
1518.0000	0.00140058
1517.5000	0.00139712
1517.0000	0.00139418
1516.5000	0.00139412
1516.0000	0.00139524
1515.5000	0.00139951
1515.0000	0.0014019
1514.5000	0.00140258
1514.0000	0.00140105
1513.5000	0.00139805
1513.0000	0.00139602
1512.5000	0.00139426
1512.0000	0.00139411
1511.5000	0.00139494
1511.0000	0.00139634
1510.5000	0.00139939
1510.0000	0.00140242
1509.5000	0.00140327
1509.0000	0.00140156
1508.5000	0.00139936
1508.0000	0.00139707
1507.5000	0.00139471
1507.0000	0.00139337
1506.5000	0.00139391
1506.0000	0.00139824
1505.5000	0.00140151
1505.0000	0.00140429
1504.5000	0.001405
1504.0000	0.00140456
1503.5000	0.00140086
1503.0000	0.00139745
1502.5000	0.00139741
1502.0000	0.00139918
1501.5000	0.00140309
1501.0000	0.00140885
1500.5000	0.00141428
1500.0000	0.00141852
1499.5000	0.00142131
1499.0000	0.00142123
1498.5000	0.00141875
1498.0000	0.00141735
1497.5000	0.00141706
1497.0000	0.00141773
1496.5000	0.0014193
1496.0000	0.00142315
1495.5000	0.00142623
1495.0000	0.00142835
1494.5000	0.00142873
1494.0000	0.00142603
1493.5000	0.00142102
1493.0000	0.0014147
1492.5000	0.00141124
1492.0000	0.00140894
1491.5000	0.00141022
1491.0000	0.00141309
1490.5000	0.0014179
1490.0000	0.00142007
1489.5000	0.00142182
1489.0000	0.00141971
1488.5000	0.00141468
1488.0000	0.00140936
1487.5000	0.00140678
1487.0000	0.0014071
1486.5000	0.00140771
1486.0000	0.00140979
1485.5000	0.00141138
1485.0000	0.00141327
1484.5000	0.00141183
1484.0000	0.00140719
1483.5000	0.00139959
1483.0000	0.00139313
1482.5000	0.00138874
1482.0000	0.00138573
1481.5000	0.00138637
1481.0000	0.00138703
1480.5000	0.00138872
1480.0000	0.00138921
1479.5000	0.00138806
1479.0000	0.00138335
1478.5000	0.00137548
1478.0000	0.00136903
1477.5000	0.00136649
1477.0000	0.00136835
1476.5000	0.00137032
1476.0000	0.00137338
1475.5000	0.0013763
1475.0000	0.00137837
1474.5000	0.00137607
1474.0000	0.00137192
1473.5000	0.00136551
1473.0000	0.00136153
1472.5000	0.00136111
1472.0000	0.00136441
1471.5000	0.00136826
1471.0000	0.00137115
1470.5000	0.00137431
1470.0000	0.00137604
1469.5000	0.00137643
1469.0000	0.00137293
1468.5000	0.00137057
1468.0000	0.00137031
1467.5000	0.00137252
1467.0000	0.0013771
1466.5000	0.00138053
1466.0000	0.0013839
1465.5000	0.00138462
1465.0000	0.0013853
1464.5000	0.0013854
1464.0000	0.00138416
1463.5000	0.00138424
1463.0000	0.00138824
1462.5000	0.00139502
1462.0000	0.00140211
1461.5000	0.00140764
1461.0000	0.0014113
1460.5000	0.00141476
1460.0000	0.00141607
1459.5000	0.0014183
1459.0000	0.00141873
1458.5000	0.00141976
1458.0000	0.00142167
1457.5000	0.00142634
1457.0000	0.00143044
1456.5000	0.00143295
1456.0000	0.00143351
1455.5000	0.00143259
1455.0000	0.00143347
1454.5000	0.00143357
1454.0000	0.00143409
1453.5000	0.00143482
1453.0000	0.0014365
1452.5000	0.00143801
1452.0000	0.0014384
1451.5000	0.00143499
1451.0000	0.00142986
1450.5000	0.00142621
1450.0000	0.00142415
1449.5000	0.00142358
1449.0000	0.00142276
1448.5000	0.00142115
1448.0000	0.00141876
1447.5000	0.00141577
1447.0000	0.00141045
1446.5000	0.00140351
1446.0000	0.00139606
1445.5000	0.00139085
1445.0000	0.00138732
1444.5000	0.00138441
1444.0000	0.00138223
1443.5000	0.00137859
1443.0000	0.00137354
1442.5000	0.00136821
1442.0000	0.00136267
1441.5000	0.00135458
1441.0000	0.00134872
1440.5000	0.0013451
1440.0000	0.0013435
1439.5000	0.00134307
1439.0000	0.00134045
1438.5000	0.0013363
1438.0000	0.00133012
1437.5000	0.00132267
1437.0000	0.00131657
1436.5000	0.00131266
1436.0000	0.00131057
1435.5000	0.00131146
1435.0000	0.001315
1434.5000	0.00131746
1434.0000	0.00131704
1433.5000	0.00131321
1433.0000	0.00131007
1432.5000	0.00130781
1432.0000	0.00130704
1431.5000	0.00130824
1431.0000	0.001312
1430.5000	0.0013174
1430.0000	0.00132303
1429.5000	0.00132537
1429.0000	0.00132441
1428.5000	0.00132234
1428.0000	0.00132162
1427.5000	0.00132075
1427.0000	0.0013238
1426.5000	0.0013303
1426.0000	0.00133836
1425.5000	0.00134655
1425.0000	0.00135149
1424.5000	0.00135323
1424.0000	0.00135304
1423.5000	0.00135444
1423.0000	0.00135756
1422.5000	0.00136236
1422.0000	0.00136905
1421.5000	0.00137717
1421.0000	0.00138421
1420.5000	0.00138866
1420.0000	0.00139004
1419.5000	0.00138927
1419.0000	0.00138668
1418.5000	0.00138754
1418.0000	0.00139082
1417.5000	0.00139467
1417.0000	0.00139799
1416.5000	0.0013997
1416.0000	0.00140189
1415.5000	0.00139881
1415.0000	0.00139387
1414.5000	0.00138837
1414.0000	0.00138496
1413.5000	0.00138553
1413.0000	0.00138596
1412.5000	0.0013882
1412.0000	0.00138868
1411.5000	0.00138831
1411.0000	0.0013843
1410.5000	0.00137725
1410.0000	0.00137121
1409.5000	0.0013679
1409.0000	0.00136832
1408.5000	0.00136966
1408.0000	0.00136877
1407.5000	0.00136918
1407.0000	0.00136411
1406.5000	0.00135686
1406.0000	0.00135057
1405.5000	0.00134555
1405.0000	0.00134302
1404.5000	0.00133817
1404.0000	0.00133701
1403.5000	0.00133647
1403.0000	0.0013336
1402.5000	0.0013277
1402.0000	0.00132063
1401.5000	0.00131688
1401.0000	0.00131466
1400.5000	0.00131494
1400.0000	0.00131405
1399.5000	0.00131576
1399.0000	0.00132118
1398.5000	0.0013224
1398.0000	0.00132035
1397.5000	0.00131732
1397.0000	0.00131776
1396.5000	0.00131854
1396.0000	0.00131787
1395.5000	0.00131708
1395.0000	0.00132022
1394.5000	0.00132261
1394.0000	0.00132409
1393.5000	0.00132356
1393.0000	0.00131947
1392.5000	0.00131841
1392.0000	0.00132236
1391.5000	0.00132118
1391.0000	0.00132017
1390.5000	0.00132228
1390.0000	0.00132358
1389.5000	0.00132422
1389.0000	0.00132228
1388.5000	0.00132009
1388.0000	0.00132045
1387.5000	0.00132189
1387.0000	0.00132566
1386.5000	0.00132784
1386.0000	0.00132881
1385.5000	0.00133013
1385.0000	0.00133157
1384.5000	0.00133352
1384.0000	0.00133234
1383.5000	0.00133242
1383.0000	0.00133111
1382.5000	0.00133492
1382.0000	0.00133853
1381.5000	0.00133991
1381.0000	0.00134445
1380.5000	0.00134434
1380.0000	0.00134722
1379.5000	0.00135285
1379.0000	0.00135616
1378.5000	0.00135907
1378.0000	0.00135757
1377.5000	0.00135936
1377.0000	0.00136014
1376.5000	0.00135941
1376.0000	0.00135994
1375.5000	0.00136119
1375.0000	0.00136801
1374.5000	0.0013717
1374.0000	0.00137607
1373.5000	0.00138047
1373.0000	0.00138404
1372.5000	0.00139068
1372.0000	0.00139418
1371.5000	0.00139724
1371.0000	0.00140382
1370.5000	0.00140596
1370.0000	0.00141023
1369.5000	0.00141224
1369.0000	0.00141186
1368.5000	0.00141057
1368.0000	0.00141241
1367.5000	0.00141225
1367.0000	0.00141296
1366.5000	0.00141269
1366.0000	0.00141206
1365.5000	0.00141124
1365.0000	0.00140505
1364.5000	0.00140239
1364.0000	0.00139882
1363.5000	0.00139483
1363.0000	0.00139065
1362.5000	0.00138822
1362.0000	0.00138819
1361.5000	0.0013831
1361.0000	0.00138111
1360.5000	0.00137837
1360.0000	0.00137478
1359.5000	0.00137289
1359.0000	0.00136844
1358.5000	0.00136549
1358.0000	0.00135948
1357.5000	0.0013516
1357.0000	0.00134323
1356.5000	0.00133689
1356.0000	0.00133068
1355.5000	0.00132644
1355.0000	0.00131967
1354.5000	0.00132081
1354.0000	0.00131847
1353.5000	0.0013155
1353.0000	0.00131411
1352.5000	0.00131207
1352.0000	0.00131147
1351.5000	0.00131195
1351.0000	0.00131111
1350.5000	0.00130948
1350.0000	0.00130928
1349.5000	0.00130911
1349.0000	0.00130801
1348.5000	0.00130824
1348.0000	0.00130965
1347.5000	0.00130997
1347.0000	0.00131155
1346.5000	0.00131222
1346.0000	0.00131403
1345.5000	0.00131596
1345.0000	0.00131664
1344.5000	0.00131704
1344.0000	0.00131537
1343.5000	0.00131513
1343.0000	0.00131636
1342.5000	0.00131898
1342.0000	0.00132047
1341.5000	0.00132121
1341.0000	0.00132356
1340.5000	0.00132473
1340.0000	0.00132663
1339.5000	0.00132763
1339.0000	0.00132676
1338.5000	0.00132712
1338.0000	0.0013301
1337.5000	0.00133289
1337.0000	0.00133416
1336.5000	0.00133559
1336.0000	0.00133745
1335.5000	0.00134118
1335.0000	0.00134266
1334.5000	0.00134432
1334.0000	0.00134542
1333.5000	0.00134717
1333.0000	0.00135054
1332.5000	0.00135332
1332.0000	0.00135522
1331.5000	0.00135663
1331.0000	0.00135734
1330.5000	0.001359
1330.0000	0.00136032
1329.5000	0.00136236
1329.0000	0.00136489
1328.5000	0.00136929
1328.0000	0.00137246
1327.5000	0.0013746
1327.0000	0.00137531
1326.5000	0.00137538
1326.0000	0.00137645
1325.5000	0.00138071
1325.0000	0.0013844
1324.5000	0.00138741
1324.0000	0.00138786
1323.5000	0.0013897
1323.0000	0.0013914
1322.5000	0.00139186
1322.0000	0.00139207
1321.5000	0.00139451
1321.0000	0.00139672
1320.5000	0.00139803
1320.0000	0.00139933
1319.5000	0.00139853
1319.0000	0.00139689
1318.5000	0.00139657
1318.0000	0.00139802
1317.5000	0.00139971
1317.0000	0.00140077
1316.5000	0.00140141
1316.0000	0.00140261
1315.5000	0.00140258
1315.0000	0.0014033
1314.5000	0.00140291
1314.0000	0.0014044
1313.5000	0.00140648
1313.0000	0.0014098
1312.5000	0.00141067
1312.0000	0.0014099
1311.5000	0.00140878
1311.0000	0.00140931
1310.5000	0.00141011
1310.0000	0.00141137
1309.5000	0.00141201
1309.0000	0.00141312
1308.5000	0.00141374
1308.0000	0.00141447
1307.5000	0.00141298
1307.0000	0.00141199
1306.5000	0.00141183
1306.0000	0.00141364
1305.5000	0.00141446
1305.0000	0.00141451
1304.5000	0.00141449
1304.0000	0.00141415
1303.5000	0.00141354
1303.0000	0.0014159
1302.5000	0.00141738
1302.0000	0.00141735
1301.5000	0.00141886
1301.0000	0.00141889
1300.5000	0.00141886
1300.0000	0.00141666
1299.5000	0.00141604
1299.0000	0.00141577
1298.5000	0.00141704
1298.0000	0.00141772
1297.5000	0.00141659
1297.0000	0.00141468
1296.5000	0.00141343
1296.0000	0.00141365
1295.5000	0.0014156
1295.0000	0.00141671
1294.5000	0.00141683
1294.0000	0.00141782
1293.5000	0.00141699
1293.0000	0.00141641
1292.5000	0.00141486
1292.0000	0.00141431
1291.5000	0.00141458
1291.0000	0.00141707
1290.5000	0.00141966
1290.0000	0.00141926
1289.5000	0.00141738
1289.0000	0.00141729
1288.5000	0.00141883
1288.0000	0.00142001
1287.5000	0.0014222
1287.0000	0.00142335
1286.5000	0.00142434
1286.0000	0.00142658
1285.5000	0.00142679
1285.0000	0.00142741
1284.5000	0.00142975
1284.0000	0.00143299
1283.5000	0.00143684
1283.0000	0.00143949
1282.5000	0.00144036
1282.0000	0.0014399
1281.5000	0.00144026
1281.0000	0.00144102
1280.5000	0.00144285
1280.0000	0.00144494
1279.5000	0.00144549
1279.0000	0.00144681
1278.5000	0.00144826
1278.0000	0.00144878
1277.5000	0.00144957
1277.0000	0.00145081
1276.5000	0.00145342
1276.0000	0.00145707
1275.5000	0.00145979
1275.0000	0.00145954
1274.5000	0.0014587
1274.0000	0.00145824
1273.5000	0.00145999
1273.0000	0.001463
1272.5000	0.00146458
1272.0000	0.00146651
1271.5000	0.00146684
1271.0000	0.0014679
1270.5000	0.0014676
1270.0000	0.00146727
1269.5000	0.00146788
1269.0000	0.00147007
1268.5000	0.00147081
1268.0000	0.00147237
1267.5000	0.0014727
1267.0000	0.00147111
1266.5000	0.00147155
1266.0000	0.00147338
1265.5000	0.00147481
1265.0000	0.00147627
1264.5000	0.00147617
1264.0000	0.00147635
1263.5000	0.00147628
1263.0000	0.00147583
1262.5000	0.00147523
1262.0000	0.00147548
1261.5000	0.0014764
1261.0000	0.00147737
1260.5000	0.00147879
1260.0000	0.00147803
1259.5000	0.00147881
1259.0000	0.00148026
1258.5000	0.00148173
1258.0000	0.00148373
1257.5000	0.00148452
1257.0000	0.00148477
1256.5000	0.00148598
1256.0000	0.00148663
1255.5000	0.00148713
1255.0000	0.00148694
1254.5000	0.00148778
1254.0000	0.00148825
1253.5000	0.00148988
1253.0000	0.00149159
1252.5000	0.00149262
1252.0000	0.00149262
1251.5000	0.00149196
1251.0000	0.00149383
1250.5000	0.00149418
1250.0000	0.00149442
1249.5000	0.00149556
1249.0000	0.00149724
1248.5000	0.0014996
1248.0000	0.00150028
1247.5000	0.00150033
1247.0000	0.00149933
1246.5000	0.00149995
1246.0000	0.00150155
1245.5000	0.00150234
1245.0000	0.00150191
1244.5000	0.00150055
1244.0000	0.00149962
1243.5000	0.00149747
1243.0000	0.00149764
1242.5000	0.00149791
1242.0000	0.00149851
1241.5000	0.00149841
1241.0000	0.00149821
1240.5000	0.00149656
1240.0000	0.00149538
1239.5000	0.00149423
1239.0000	0.00149412
1238.5000	0.00149474
1238.0000	0.00149453
1237.5000	0.001493
1237.0000	0.00149014
1236.5000	0.00148907
1236.0000	0.00148849
1235.5000	0.00148902
1235.0000	0.001489
1234.5000	0.00148975
1234.0000	0.0014885
1233.5000	0.00148797
1233.0000	0.00148731
1232.5000	0.0014872
1232.0000	0.00148803
1231.5000	0.00148987
1231.0000	0.00149253
1230.5000	0.00149254
1230.0000	0.00149205
1229.5000	0.00149229
1229.0000	0.00149414
1228.5000	0.00149672
1228.0000	0.00149957
1227.5000	0.00150188
1227.0000	0.00150278
1226.5000	0.00150265
1226.0000	0.00150343
1225.5000	0.00150451
1225.0000	0.00150526
1224.5000	0.00150703
1224.0000	0.00150813
1223.5000	0.00151082
1223.0000	0.00151211
1222.5000	0.0015134
1222.0000	0.00151486
1221.5000	0.00151725
1221.0000	0.00152017
1220.5000	0.00152166
1220.0000	0.00152274
1219.5000	0.00152287
1219.0000	0.001524
1218.5000	0.00152475
1218.0000	0.00152708
1217.5000	0.00152872
1217.0000	0.00152949
1216.5000	0.00153031
1216.0000	0.00153115
1215.5000	0.001532
1215.0000	0.00153153
1214.5000	0.00153249
1214.0000	0.00153372
1213.5000	0.0015347
1213.0000	0.0015351
1212.5000	0.00153534
1212.0000	0.00153569
1211.5000	0.00153797
1211.0000	0.00153976
1210.5000	0.00154126
1210.0000	0.0015419
1209.5000	0.00154243
1209.0000	0.00154452
1208.5000	0.00154535
1208.0000	0.00154696
1207.5000	0.00154753
1207.0000	0.00154863
1206.5000	0.00154915
1206.0000	0.00155001
1205.5000	0.00155048
1205.0000	0.00155148
1204.5000	0.00155132
1204.0000	0.00155168
1203.5000	0.00155319
1203.0000	0.00155346
1202.5000	0.00155339
1202.0000	0.00155411
1201.5000	0.0015543
1201.0000	0.00155661
1200.5000	0.00155752
1200.0000	0.00158865
1199.5000	0.00159089
1199.0000	0.00159176
1198.5000	0.00159249
1198.0000	0.00159472
1197.5000	0.0015967
1197.0000	0.00159925
1196.5000	0.00160008
1196.0000	0.00160275
1195.5000	0.00160435
1195.0000	0.00160827
1194.5000	0.00160997
1194.0000	0.00161109
1193.5000	0.0016116
1193.0000	0.00161433
1192.5000	0.00161436
1192.0000	0.00161725
1191.5000	0.00161849
1191.0000	0.00162002
1190.5000	0.0016209
1190.0000	0.00162345
1189.5000	0.00162437
1189.0000	0.00162632
1188.5000	0.00162803
1188.0000	0.00162925
1187.5000	0.00162997
1187.0000	0.00163358
1186.5000	0.00163544
1186.0000	0.00163813
1185.5000	0.00163945
1185.0000	0.00164227
1184.5000	0.00164256
1184.0000	0.00164492
1183.5000	0.00164562
1183.0000	0.00164865
1182.5000	0.00165039
1182.0000	0.00165233
1181.5000	0.00165182
1181.0000	0.00165442
1180.5000	0.00165731
1180.0000	0.0016603
1179.5000	0.00166091
1179.0000	0.00166112
1178.5000	0.00166171
1178.0000	0.00166453
1177.5000	0.00166641
1177.0000	0.00166892
1176.5000	0.00167182
1176.0000	0.00167465
1175.5000	0.00167613
1175.0000	0.00167993
1174.5000	0.00168327
1174.0000	0.00168838
1173.5000	0.00169356
1173.0000	0.00169886
1172.5000	0.00170419
1172.0000	0.00171029
1171.5000	0.00171475
1171.0000	0.00172067
1170.5000	0.0017264
1170.0000	0.00173394
1169.5000	0.00174015
1169.0000	0.00174803
1168.5000	0.00175636
1168.0000	0.00176639
1167.5000	0.00177705
1167.0000	0.00178984
1166.5000	0.00180392
1166.0000	0.00181818
1165.5000	0.00183614
1165.0000	0.00185382
1164.5000	0.00187307
1164.0000	0.00189411
1163.5000	0.00191826
1163.0000	0.00194478
1162.5000	0.00197308
1162.0000	0.00200322
1161.5000	0.00203559
1161.0000	0.00206837
1160.5000	0.00210519
1160.0000	0.00214203
1159.5000	0.00218378
1159.0000	0.00222426
1158.5000	0.0022697
1158.0000	0.00231306
1157.5000	0.0023609
1157.0000	0.00240831
1156.5000	0.00245931
1156.0000	0.00250956
1155.5000	0.00256332
1155.0000	0.00261435
1154.5000	0.00266773
1154.0000	0.00271969
1153.5000	0.00277303
1153.0000	0.00282592
1152.5000	0.0028783
1152.0000	0.00292831
1151.5000	0.00297454
1151.0000	0.00301934
1150.5000	0.00305648
1150.0000	0.00309361
1149.5000	0.00311921
1149.0000	0.0031442
1148.5000	0.00315548
1148.0000	0.00316731
1147.5000	0.00316369
1147.0000	0.00316013
1146.5000	0.00313718
1146.0000	0.00311214
1145.5000	0.00306402
1145.0000	0.00301857
1144.5000	0.00294248
1144.0000	0.00286961
1143.5000	0.00276659
1143.0000	0.00266754
1142.5000	0.00253005
1142.0000	0.00240194
1141.5000	0.00223371
1141.0000	0.00207418
1140.5000	0.00187904
1140.0000	0.0017042
1139.5000	0.00149448
1139.0000	0.00131134
1138.5000	0.00110361
1138.0000	0.000921429
1137.5000	0.000725372
1137.0000	0.000568791
1136.5000	0.000400305
1136.0000	0.000276711
1135.5000	0.000146793
1135.0000	5.27758E-005
1134.5000	-4.1864E-005
1134.0000	-9.77498E-005
1133.5000	-0.000150418
1133.0000	-0.000179119
1132.5000	-0.000204147
1132.0000	-0.000206178
1131.5000	-0.000207396
1131.0000	-0.000190247
1130.5000	-0.000170392
1130.0000	-0.000133309
