TITLE	n2200-mesi
DATA TYPE	ULTRAVIOLET SPECTRUM
ORIGIN	JASCO
OWNER	
DATE	21/12/23
TIME	11:10:52
SPECTROMETER/DATA SYSTEM	
LOCALE	1033
RESOLUTION	
DELTAX	-0.5
XUNITS	NANOMETERS
YUNITS	ABSORBANCE
FIRSTX	 1600.0000
LASTX	  200.0000
NPOINTS	    2801
FIRSTY	     0.01668
MAXY	     1.18733
MINY	     0.01668
XYDATA
1600.0000	0.0166804
1599.5000	0.0166834
1599.0000	0.0166994
1598.5000	0.0167018
1598.0000	0.0167203
1597.5000	0.0167198
1597.0000	0.0167243
1596.5000	0.0167192
1596.0000	0.0167272
1595.5000	0.0167226
1595.0000	0.0167267
1594.5000	0.016726
1594.0000	0.0167293
1593.5000	0.0167225
1593.0000	0.0167208
1592.5000	0.0167253
1592.0000	0.016737
1591.5000	0.0167408
1591.0000	0.0167515
1590.5000	0.0167509
1590.0000	0.0167637
1589.5000	0.0167693
1589.0000	0.0167872
1588.5000	0.016794
1588.0000	0.016814
1587.5000	0.0168235
1587.0000	0.0168463
1586.5000	0.0168521
1586.0000	0.0168623
1585.5000	0.0168669
1585.0000	0.016881
1584.5000	0.0168899
1584.0000	0.0168986
1583.5000	0.0169043
1583.0000	0.0169115
1582.5000	0.0169183
1582.0000	0.0169223
1581.5000	0.0169219
1581.0000	0.016922
1580.5000	0.0169153
1580.0000	0.0169066
1579.5000	0.0169013
1579.0000	0.0168902
1578.5000	0.0168841
1578.0000	0.016873
1577.5000	0.01686
1577.0000	0.0168446
1576.5000	0.0168273
1576.0000	0.0168036
1575.5000	0.0167811
1575.0000	0.0167784
1574.5000	0.0167699
1574.0000	0.0167667
1573.5000	0.0167539
1573.0000	0.0167458
1572.5000	0.016746
1572.0000	0.0167514
1571.5000	0.0167482
1571.0000	0.0167537
1570.5000	0.0167575
1570.0000	0.0167588
1569.5000	0.0167552
1569.0000	0.0167688
1568.5000	0.0167771
1568.0000	0.0167935
1567.5000	0.0168012
1567.0000	0.0168131
1566.5000	0.0168231
1566.0000	0.0168396
1565.5000	0.0168452
1565.0000	0.0168592
1564.5000	0.0168789
1564.0000	0.0169018
1563.5000	0.0169125
1563.0000	0.0169315
1562.5000	0.0169436
1562.0000	0.0169638
1561.5000	0.016976
1561.0000	0.0169909
1560.5000	0.0170016
1560.0000	0.0170172
1559.5000	0.0170315
1559.0000	0.0170439
1558.5000	0.0170515
1558.0000	0.0170595
1557.5000	0.0170713
1557.0000	0.0170792
1556.5000	0.0170791
1556.0000	0.0170716
1555.5000	0.0170729
1555.0000	0.0170825
1554.5000	0.0170932
1554.0000	0.017095
1553.5000	0.0170909
1553.0000	0.0170833
1552.5000	0.0170801
1552.0000	0.0170822
1551.5000	0.0170779
1551.0000	0.017071
1550.5000	0.0170646
1550.0000	0.0170615
1549.5000	0.0170649
1549.0000	0.0170724
1548.5000	0.017079
1548.0000	0.0170761
1547.5000	0.017079
1547.0000	0.017087
1546.5000	0.0170987
1546.0000	0.0171016
1545.5000	0.0171062
1545.0000	0.0171045
1544.5000	0.0171132
1544.0000	0.0171169
1543.5000	0.0171179
1543.0000	0.0171218
1542.5000	0.017125
1542.0000	0.0171285
1541.5000	0.0171251
1541.0000	0.0171212
1540.5000	0.0171124
1540.0000	0.0171089
1539.5000	0.0171108
1539.0000	0.0171093
1538.5000	0.017106
1538.0000	0.0170917
1537.5000	0.0170868
1537.0000	0.0170803
1536.5000	0.0170785
1536.0000	0.0170699
1535.5000	0.0170683
1535.0000	0.0170611
1534.5000	0.0170612
1534.0000	0.017061
1533.5000	0.0170637
1533.0000	0.0170658
1532.5000	0.0170752
1532.0000	0.0170804
1531.5000	0.0170867
1531.0000	0.017091
1530.5000	0.0171032
1530.0000	0.0171032
1529.5000	0.0171065
1529.0000	0.0171109
1528.5000	0.0171278
1528.0000	0.0171506
1527.5000	0.0171665
1527.0000	0.0171806
1526.5000	0.0171949
1526.0000	0.017213
1525.5000	0.0172327
1525.0000	0.0172409
1524.5000	0.0172537
1524.0000	0.0172781
1523.5000	0.0173073
1523.0000	0.0173301
1522.5000	0.0173448
1522.0000	0.0173705
1521.5000	0.0173915
1521.0000	0.0174094
1520.5000	0.0174195
1520.0000	0.0174255
1519.5000	0.0174301
1519.0000	0.0174441
1518.5000	0.017457
1518.0000	0.0174516
1517.5000	0.0174421
1517.0000	0.0174321
1516.5000	0.0174324
1516.0000	0.0174222
1515.5000	0.0174199
1515.0000	0.0173961
1514.5000	0.0173935
1514.0000	0.0173734
1513.5000	0.0173735
1513.0000	0.0173702
1512.5000	0.0173621
1512.0000	0.0173324
1511.5000	0.0173288
1511.0000	0.017325
1510.5000	0.0173265
1510.0000	0.017312
1509.5000	0.017323
1509.0000	0.0173215
1508.5000	0.0173313
1508.0000	0.0173308
1507.5000	0.0173429
1507.0000	0.0173529
1506.5000	0.0173557
1506.0000	0.0173605
1505.5000	0.0173673
1505.0000	0.0173703
1504.5000	0.0173727
1504.0000	0.0173777
1503.5000	0.0173855
1503.0000	0.0173866
1502.5000	0.017391
1502.0000	0.0173934
1501.5000	0.017405
1501.0000	0.0174024
1500.5000	0.0173998
1500.0000	0.0173978
1499.5000	0.0173989
1499.0000	0.0173978
1498.5000	0.0173996
1498.0000	0.0173982
1497.5000	0.0174049
1497.0000	0.0173984
1496.5000	0.0173993
1496.0000	0.0173991
1495.5000	0.017411
1495.0000	0.0174283
1494.5000	0.0174429
1494.0000	0.017454
1493.5000	0.0174629
1493.0000	0.0174763
1492.5000	0.0174923
1492.0000	0.0175089
1491.5000	0.0175221
1491.0000	0.0175341
1490.5000	0.0175425
1490.0000	0.0175473
1489.5000	0.0175606
1489.0000	0.0175716
1488.5000	0.0175853
1488.0000	0.0175903
1487.5000	0.0175987
1487.0000	0.0176021
1486.5000	0.0176082
1486.0000	0.0176166
1485.5000	0.0176322
1485.0000	0.0176446
1484.5000	0.0176548
1484.0000	0.0176598
1483.5000	0.0176737
1483.0000	0.0176801
1482.5000	0.0176878
1482.0000	0.0176837
1481.5000	0.0176909
1481.0000	0.0176892
1480.5000	0.0176841
1480.0000	0.0176714
1479.5000	0.0176721
1479.0000	0.0176565
1478.5000	0.017652
1478.0000	0.0176394
1477.5000	0.0176352
1477.0000	0.0176054
1476.5000	0.0175886
1476.0000	0.0175685
1475.5000	0.0175746
1475.0000	0.0175672
1474.5000	0.0175611
1474.0000	0.0175697
1473.5000	0.0175827
1473.0000	0.0175958
1472.5000	0.0175983
1472.0000	0.0176008
1471.5000	0.0176059
1471.0000	0.0176025
1470.5000	0.0176005
1470.0000	0.0176004
1469.5000	0.0176087
1469.0000	0.0176259
1468.5000	0.0176424
1468.0000	0.0176715
1467.5000	0.017682
1467.0000	0.0177009
1466.5000	0.0177188
1466.0000	0.0177472
1465.5000	0.0177586
1465.0000	0.0177732
1464.5000	0.0177828
1464.0000	0.0178061
1463.5000	0.0178137
1463.0000	0.0178256
1462.5000	0.0178285
1462.0000	0.0178307
1461.5000	0.017834
1461.0000	0.0178275
1460.5000	0.0178237
1460.0000	0.0178194
1459.5000	0.0178165
1459.0000	0.0178155
1458.5000	0.0178224
1458.0000	0.017827
1457.5000	0.0178339
1457.0000	0.0178332
1456.5000	0.017837
1456.0000	0.0178425
1455.5000	0.0178469
1455.0000	0.0178542
1454.5000	0.0178603
1454.0000	0.0178783
1453.5000	0.0178834
1453.0000	0.0179048
1452.5000	0.0179165
1452.0000	0.0179348
1451.5000	0.0179317
1451.0000	0.0179379
1450.5000	0.0179371
1450.0000	0.0179283
1449.5000	0.0179191
1449.0000	0.0179165
1448.5000	0.0179127
1448.0000	0.0179144
1447.5000	0.0179083
1447.0000	0.0179045
1446.5000	0.0178926
1446.0000	0.017881
1445.5000	0.0178768
1445.0000	0.0178758
1444.5000	0.0178711
1444.0000	0.0178874
1443.5000	0.0178923
1443.0000	0.0178987
1442.5000	0.0179043
1442.0000	0.0179166
1441.5000	0.01792
1441.0000	0.0179235
1440.5000	0.0179281
1440.0000	0.017933
1439.5000	0.0179264
1439.0000	0.0179277
1438.5000	0.0179306
1438.0000	0.0179442
1437.5000	0.0179523
1437.0000	0.0179606
1436.5000	0.017963
1436.0000	0.0179705
1435.5000	0.0179736
1435.0000	0.0179791
1434.5000	0.017977
1434.0000	0.0179931
1433.5000	0.018004
1433.0000	0.0180361
1432.5000	0.0180561
1432.0000	0.0180913
1431.5000	0.0181111
1431.0000	0.0181403
1430.5000	0.0181626
1430.0000	0.0181794
1429.5000	0.0181846
1429.0000	0.0181961
1428.5000	0.018203
1428.0000	0.018222
1427.5000	0.0182358
1427.0000	0.0182554
1426.5000	0.0182726
1426.0000	0.0182741
1425.5000	0.0182731
1425.0000	0.0182642
1424.5000	0.0182632
1424.0000	0.0182508
1423.5000	0.0182253
1423.0000	0.0182015
1422.5000	0.0181923
1422.0000	0.0182057
1421.5000	0.0182161
1421.0000	0.0182381
1420.5000	0.0182451
1420.0000	0.0182659
1419.5000	0.0182735
1419.0000	0.0182766
1418.5000	0.0182739
1418.0000	0.0182804
1417.5000	0.0182928
1417.0000	0.0183006
1416.5000	0.0182997
1416.0000	0.0182903
1415.5000	0.0182863
1415.0000	0.0182727
1414.5000	0.0182543
1414.0000	0.0182241
1413.5000	0.0182034
1413.0000	0.0182099
1412.5000	0.0182201
1412.0000	0.0182406
1411.5000	0.0182328
1411.0000	0.0182341
1410.5000	0.0182399
1410.0000	0.0182466
1409.5000	0.0182316
1409.0000	0.018206
1408.5000	0.0182202
1408.0000	0.018297
1407.5000	0.0183395
1407.0000	0.0183993
1406.5000	0.0184395
1406.0000	0.0185361
1405.5000	0.0185973
1405.0000	0.01865
1404.5000	0.0186503
1404.0000	0.0186721
1403.5000	0.018674
1403.0000	0.0186622
1402.5000	0.0186209
1402.0000	0.018563
1401.5000	0.0185418
1401.0000	0.0185136
1400.5000	0.0185218
1400.0000	0.0185509
1399.5000	0.0185971
1399.0000	0.0186486
1398.5000	0.0186947
1398.0000	0.0187477
1397.5000	0.0187689
1397.0000	0.0188144
1396.5000	0.0188205
1396.0000	0.0188531
1395.5000	0.0188557
1395.0000	0.0188665
1394.5000	0.0188573
1394.0000	0.0188514
1393.5000	0.0188503
1393.0000	0.0188463
1392.5000	0.018835
1392.0000	0.0188033
1391.5000	0.0187847
1391.0000	0.0187492
1390.5000	0.0187238
1390.0000	0.0186519
1389.5000	0.0186034
1389.0000	0.0185875
1388.5000	0.0185924
1388.0000	0.0185891
1387.5000	0.0185764
1387.0000	0.0185897
1386.5000	0.0186082
1386.0000	0.0187008
1385.5000	0.0186986
1385.0000	0.0187236
1384.5000	0.0187225
1384.0000	0.0187899
1383.5000	0.0188202
1383.0000	0.0187562
1382.5000	0.0186769
1382.0000	0.0185512
1381.5000	0.0185219
1381.0000	0.0183971
1380.5000	0.0183156
1380.0000	0.0182338
1379.5000	0.0182419
1379.0000	0.018356
1378.5000	0.0184377
1378.0000	0.0185648
1377.5000	0.018631
1377.0000	0.0187456
1376.5000	0.018797
1376.0000	0.0188129
1375.5000	0.0188032
1375.0000	0.0187622
1374.5000	0.0187419
1374.0000	0.0187127
1373.5000	0.0186826
1373.0000	0.0186719
1372.5000	0.0186319
1372.0000	0.0186021
1371.5000	0.0185364
1371.0000	0.0185193
1370.5000	0.0184953
1370.0000	0.018461
1369.5000	0.0184664
1369.0000	0.0185132
1368.5000	0.018583
1368.0000	0.0186341
1367.5000	0.0186751
1367.0000	0.018698
1366.5000	0.0186941
1366.0000	0.0186928
1365.5000	0.0186864
1365.0000	0.0187083
1364.5000	0.018709
1364.0000	0.0187289
1363.5000	0.0187426
1363.0000	0.0188018
1362.5000	0.0187979
1362.0000	0.0187623
1361.5000	0.0187287
1361.0000	0.0187566
1360.5000	0.0187847
1360.0000	0.0187823
1359.5000	0.0187555
1359.0000	0.0187082
1358.5000	0.018711
1358.0000	0.0187051
1357.5000	0.0186649
1357.0000	0.0185995
1356.5000	0.0185415
1356.0000	0.0184758
1355.5000	0.0183979
1355.0000	0.018299
1354.5000	0.0182594
1354.0000	0.0182309
1353.5000	0.018259
1353.0000	0.0182864
1352.5000	0.0183378
1352.0000	0.0184013
1351.5000	0.0184618
1351.0000	0.0185357
1350.5000	0.0185635
1350.0000	0.0185965
1349.5000	0.0186251
1349.0000	0.018678
1348.5000	0.0187031
1348.0000	0.0187276
1347.5000	0.018735
1347.0000	0.0187493
1346.5000	0.0187554
1346.0000	0.0187619
1345.5000	0.0187653
1345.0000	0.0187679
1344.5000	0.0187753
1344.0000	0.0187799
1343.5000	0.0187801
1343.0000	0.0187859
1342.5000	0.0187955
1342.0000	0.018795
1341.5000	0.0187898
1341.0000	0.0187848
1340.5000	0.0187825
1340.0000	0.0187813
1339.5000	0.0187796
1339.0000	0.0187817
1338.5000	0.018787
1338.0000	0.0187931
1337.5000	0.0188016
1337.0000	0.0188002
1336.5000	0.0188084
1336.0000	0.018803
1335.5000	0.0187979
1335.0000	0.0188001
1334.5000	0.018807
1334.0000	0.0188189
1333.5000	0.0188209
1333.0000	0.0188163
1332.5000	0.0188105
1332.0000	0.0187918
1331.5000	0.018785
1331.0000	0.0187784
1330.5000	0.0187802
1330.0000	0.0187802
1329.5000	0.0187839
1329.0000	0.0187873
1328.5000	0.0187992
1328.0000	0.0188053
1327.5000	0.018811
1327.0000	0.0188209
1326.5000	0.0188248
1326.0000	0.018836
1325.5000	0.0188461
1325.0000	0.018857
1324.5000	0.0188725
1324.0000	0.0188822
1323.5000	0.0188928
1323.0000	0.0189123
1322.5000	0.0189271
1322.0000	0.0189379
1321.5000	0.0189477
1321.0000	0.0189595
1320.5000	0.0189762
1320.0000	0.0189954
1319.5000	0.0190126
1319.0000	0.0190197
1318.5000	0.0190278
1318.0000	0.0190368
1317.5000	0.0190529
1317.0000	0.0190685
1316.5000	0.0190749
1316.0000	0.0190771
1315.5000	0.019082
1315.0000	0.0190858
1314.5000	0.0190887
1314.0000	0.0190875
1313.5000	0.0190837
1313.0000	0.0190734
1312.5000	0.0190663
1312.0000	0.0190507
1311.5000	0.0190454
1311.0000	0.0190318
1310.5000	0.0190252
1310.0000	0.0190212
1309.5000	0.0190283
1309.0000	0.0190337
1308.5000	0.0190397
1308.0000	0.0190376
1307.5000	0.0190463
1307.0000	0.0190534
1306.5000	0.0190689
1306.0000	0.0190828
1305.5000	0.0190929
1305.0000	0.0190955
1304.5000	0.0191023
1304.0000	0.0191042
1303.5000	0.019117
1303.0000	0.0191265
1302.5000	0.0191465
1302.0000	0.0191634
1301.5000	0.0191749
1301.0000	0.0191732
1300.5000	0.0191841
1300.0000	0.0191894
1299.5000	0.0191964
1299.0000	0.0192049
1298.5000	0.019214
1298.0000	0.019231
1297.5000	0.0192399
1297.0000	0.0192556
1296.5000	0.0192586
1296.0000	0.0192651
1295.5000	0.0192637
1295.0000	0.0192714
1294.5000	0.01927
1294.0000	0.0192666
1293.5000	0.0192673
1293.0000	0.0192777
1292.5000	0.0192973
1292.0000	0.0193153
1291.5000	0.0193308
1291.0000	0.0193407
1290.5000	0.019353
1290.0000	0.0193615
1289.5000	0.0193708
1289.0000	0.0193766
1288.5000	0.019388
1288.0000	0.0193847
1287.5000	0.0193854
1287.0000	0.0193772
1286.5000	0.0193802
1286.0000	0.0193701
1285.5000	0.0193688
1285.0000	0.0193619
1284.5000	0.0193599
1284.0000	0.0193564
1283.5000	0.0193562
1283.0000	0.0193548
1282.5000	0.0193532
1282.0000	0.0193488
1281.5000	0.0193529
1281.0000	0.0193581
1280.5000	0.0193628
1280.0000	0.0193731
1279.5000	0.0193867
1279.0000	0.019411
1278.5000	0.0194231
1278.0000	0.0194414
1277.5000	0.0194555
1277.0000	0.0194811
1276.5000	0.019493
1276.0000	0.0195124
1275.5000	0.0195344
1275.0000	0.0195624
1274.5000	0.0195767
1274.0000	0.0195855
1273.5000	0.0195945
1273.0000	0.0196118
1272.5000	0.0196248
1272.0000	0.0196389
1271.5000	0.0196408
1271.0000	0.0196451
1270.5000	0.0196461
1270.0000	0.0196307
1269.5000	0.0196312
1269.0000	0.0196286
1268.5000	0.0196407
1268.0000	0.0196428
1267.5000	0.0196397
1267.0000	0.0196276
1266.5000	0.0196286
1266.0000	0.0196233
1265.5000	0.0196342
1265.0000	0.0196336
1264.5000	0.0196477
1264.0000	0.0196523
1263.5000	0.0196706
1263.0000	0.0196884
1262.5000	0.0197037
1262.0000	0.0197065
1261.5000	0.0197076
1261.0000	0.0197136
1260.5000	0.01972
1260.0000	0.0197247
1259.5000	0.0197303
1259.0000	0.0197291
1258.5000	0.0197313
1258.0000	0.0197226
1257.5000	0.0197229
1257.0000	0.0197198
1256.5000	0.0197235
1256.0000	0.0197274
1255.5000	0.0197386
1255.0000	0.0197493
1254.5000	0.0197588
1254.0000	0.0197722
1253.5000	0.0197834
1253.0000	0.0198084
1252.5000	0.0198252
1252.0000	0.0198463
1251.5000	0.0198597
1251.0000	0.019873
1250.5000	0.0198851
1250.0000	0.0198938
1249.5000	0.0199056
1249.0000	0.0199159
1248.5000	0.0199285
1248.0000	0.0199445
1247.5000	0.0199549
1247.0000	0.0199696
1246.5000	0.0199742
1246.0000	0.0199718
1245.5000	0.0199757
1245.0000	0.019978
1244.5000	0.0199808
1244.0000	0.019978
1243.5000	0.019978
1243.0000	0.0199771
1242.5000	0.019983
1242.0000	0.0199732
1241.5000	0.0199698
1241.0000	0.0199602
1240.5000	0.0199622
1240.0000	0.0199672
1239.5000	0.0199742
1239.0000	0.0199736
1238.5000	0.019977
1238.0000	0.0199922
1237.5000	0.020006
1237.0000	0.0200238
1236.5000	0.0200312
1236.0000	0.0200442
1235.5000	0.0200544
1235.0000	0.0200703
1234.5000	0.0200817
1234.0000	0.0200883
1233.5000	0.020097
1233.0000	0.0200999
1232.5000	0.0201084
1232.0000	0.0201288
1231.5000	0.0201387
1231.0000	0.0201517
1230.5000	0.0201599
1230.0000	0.0201707
1229.5000	0.020184
1229.0000	0.0201999
1228.5000	0.0202086
1228.0000	0.0202241
1227.5000	0.0202371
1227.0000	0.0202499
1226.5000	0.0202597
1226.0000	0.0202789
1225.5000	0.020291
1225.0000	0.0203093
1224.5000	0.0203173
1224.0000	0.0203311
1223.5000	0.0203363
1223.0000	0.0203487
1222.5000	0.0203564
1222.0000	0.0203681
1221.5000	0.0203777
1221.0000	0.0203859
1220.5000	0.0203883
1220.0000	0.0203843
1219.5000	0.0203908
1219.0000	0.0203894
1218.5000	0.0203869
1218.0000	0.0203819
1217.5000	0.020376
1217.0000	0.020386
1216.5000	0.0203876
1216.0000	0.0204022
1215.5000	0.0204107
1215.0000	0.0204268
1214.5000	0.0204294
1214.0000	0.0204424
1213.5000	0.020455
1213.0000	0.0204773
1212.5000	0.0204866
1212.0000	0.0205105
1211.5000	0.0205267
1211.0000	0.0205484
1210.5000	0.0205595
1210.0000	0.0205805
1209.5000	0.0205925
1209.0000	0.0206123
1208.5000	0.0206221
1208.0000	0.0206445
1207.5000	0.0206506
1207.0000	0.0206654
1206.5000	0.0206709
1206.0000	0.0206855
1205.5000	0.0206889
1205.0000	0.0207111
1204.5000	0.0207108
1204.0000	0.0207311
1203.5000	0.0207328
1203.0000	0.0207358
1202.5000	0.0207336
1202.0000	0.0207253
1201.5000	0.0207268
1201.0000	0.0207406
1200.5000	0.0207568
1200.0000	0.0207894
1199.5000	0.0207904
1199.0000	0.0207962
1198.5000	0.0208043
1198.0000	0.0208254
1197.5000	0.0208308
1197.0000	0.0208416
1196.5000	0.0208466
1196.0000	0.0208625
1195.5000	0.020873
1195.0000	0.0208922
1194.5000	0.0208946
1194.0000	0.0209046
1193.5000	0.0209031
1193.0000	0.0209144
1192.5000	0.0209215
1192.0000	0.0209317
1191.5000	0.0209363
1191.0000	0.0209534
1190.5000	0.0209689
1190.0000	0.0209877
1189.5000	0.0209996
1189.0000	0.0210101
1188.5000	0.021023
1188.0000	0.0210347
1187.5000	0.0210495
1187.0000	0.0210678
1186.5000	0.0210828
1186.0000	0.0210887
1185.5000	0.0210964
1185.0000	0.0211108
1184.5000	0.021123
1184.0000	0.0211256
1183.5000	0.0211267
1183.0000	0.0211261
1182.5000	0.0211249
1182.0000	0.0211152
1181.5000	0.0211078
1181.0000	0.0210917
1180.5000	0.0210858
1180.0000	0.0210791
1179.5000	0.0210713
1179.0000	0.0210629
1178.5000	0.0210623
1178.0000	0.0210538
1177.5000	0.0210628
1177.0000	0.0210684
1176.5000	0.0210782
1176.0000	0.0210817
1175.5000	0.021087
1175.0000	0.0210997
1174.5000	0.0211089
1174.0000	0.0211204
1173.5000	0.0211233
1173.0000	0.0211224
1172.5000	0.0211317
1172.0000	0.0211376
1171.5000	0.0211456
1171.0000	0.021154
1170.5000	0.0211616
1170.0000	0.0211614
1169.5000	0.0211625
1169.0000	0.0211667
1168.5000	0.0211823
1168.0000	0.02119
1167.5000	0.0212
1167.0000	0.0211988
1166.5000	0.021211
1166.0000	0.021221
1165.5000	0.0212368
1165.0000	0.0212488
1164.5000	0.0212546
1164.0000	0.0212604
1163.5000	0.021275
1163.0000	0.0212897
1162.5000	0.0212988
1162.0000	0.0212998
1161.5000	0.0213084
1161.0000	0.0213064
1160.5000	0.0213099
1160.0000	0.0213058
1159.5000	0.0213076
1159.0000	0.0213039
1158.5000	0.021305
1158.0000	0.0212967
1157.5000	0.021295
1157.0000	0.0212849
1156.5000	0.0212889
1156.0000	0.0212878
1155.5000	0.0212957
1155.0000	0.0213029
1154.5000	0.0213166
1154.0000	0.0213325
1153.5000	0.0213436
1153.0000	0.0213454
1152.5000	0.0213612
1152.0000	0.0213618
1151.5000	0.0213753
1151.0000	0.0213848
1150.5000	0.0214038
1150.0000	0.0214199
1149.5000	0.0214409
1149.0000	0.0214503
1148.5000	0.0214597
1148.0000	0.0214559
1147.5000	0.0214638
1147.0000	0.021474
1146.5000	0.0214857
1146.0000	0.0214826
1145.5000	0.0214859
1145.0000	0.0214767
1144.5000	0.0214808
1144.0000	0.0214802
1143.5000	0.0214891
1143.0000	0.0214866
1142.5000	0.0214899
1142.0000	0.0214805
1141.5000	0.0214842
1141.0000	0.0214853
1140.5000	0.0214908
1140.0000	0.0214917
1139.5000	0.0214966
1139.0000	0.0215106
1138.5000	0.0215201
1138.0000	0.0215265
1137.5000	0.0215257
1137.0000	0.0215148
1136.5000	0.0215157
1136.0000	0.0215142
1135.5000	0.0215113
1135.0000	0.0215063
1134.5000	0.0215099
1134.0000	0.0215117
1133.5000	0.0215219
1133.0000	0.0215264
1132.5000	0.0215437
1132.0000	0.0215564
1131.5000	0.0215839
1131.0000	0.0216015
1130.5000	0.0216279
1130.0000	0.0216433
1129.5000	0.0216578
1129.0000	0.0216685
1128.5000	0.021674
1128.0000	0.0216776
1127.5000	0.0216869
1127.0000	0.0216837
1126.5000	0.0216913
1126.0000	0.0216878
1125.5000	0.0216929
1125.0000	0.0216931
1124.5000	0.0216927
1124.0000	0.0216737
1123.5000	0.0216706
1123.0000	0.0216534
1122.5000	0.021656
1122.0000	0.0216474
1121.5000	0.021656
1121.0000	0.0216541
1120.5000	0.0216641
1120.0000	0.0216663
1119.5000	0.0216842
1119.0000	0.0216909
1118.5000	0.0217
1118.0000	0.0216988
1117.5000	0.0217141
1117.0000	0.0217226
1116.5000	0.0217304
1116.0000	0.0217371
1115.5000	0.0217479
1115.0000	0.0217502
1114.5000	0.021759
1114.0000	0.0217606
1113.5000	0.0217716
1113.0000	0.0217867
1112.5000	0.0217966
1112.0000	0.0218104
1111.5000	0.0218234
1111.0000	0.021843
1110.5000	0.0218585
1110.0000	0.0218705
1109.5000	0.0218756
1109.0000	0.0218842
1108.5000	0.0218941
1108.0000	0.0218978
1107.5000	0.0219036
1107.0000	0.0219072
1106.5000	0.0219162
1106.0000	0.0219145
1105.5000	0.0219182
