TITLE	N2200
DATA TYPE	ULTRAVIOLET SPECTRUM
ORIGIN	JASCO
OWNER	
DATE	21/10/25
TIME	14:57:39
SPECTROMETER/DATA SYSTEM	
LOCALE	1033
RESOLUTION	
DELTAX	-0.5
XUNITS	NANOMETERS
YUNITS	ABSORBANCE
FIRSTX	 1600.0000
LASTX	  200.0000
NPOINTS	    2801
FIRSTY	     0.00138
MAXY	     0.15005
MINY	     0.00137
XYDATA
1600.0000	0.00137708
1599.5000	0.00137842
1599.0000	0.00137688
1598.5000	0.00137675
1598.0000	0.00137758
1597.5000	0.001379
1597.0000	0.00137576
1596.5000	0.00137435
1596.0000	0.00137637
1595.5000	0.00137765
1595.0000	0.00138361
1594.5000	0.00138529
1594.0000	0.00138868
1593.5000	0.00139053
1593.0000	0.00139424
1592.5000	0.0013975
1592.0000	0.00140237
1591.5000	0.00140363
1591.0000	0.00140971
1590.5000	0.00141162
1590.0000	0.00141579
1589.5000	0.00141547
1589.0000	0.00141595
1588.5000	0.00141502
1588.0000	0.00141555
1587.5000	0.0014147
1587.0000	0.00141743
1586.5000	0.00141768
1586.0000	0.00141579
1585.5000	0.00141598
1585.0000	0.00141846
1584.5000	0.00141976
1584.0000	0.00142256
1583.5000	0.00142465
1583.0000	0.00142913
1582.5000	0.00143302
1582.0000	0.00143427
1581.5000	0.00143776
1581.0000	0.00144122
1580.5000	0.0014422
1580.0000	0.00144107
1579.5000	0.00144476
1579.0000	0.00144638
1578.5000	0.00144611
1578.0000	0.0014479
1577.5000	0.00145012
1577.0000	0.00145057
1576.5000	0.00144957
1576.0000	0.00145206
1575.5000	0.00145415
1575.0000	0.00145474
1574.5000	0.00145736
1574.0000	0.00145999
1573.5000	0.00146325
1573.0000	0.00146422
1572.5000	0.00146425
1572.0000	0.00146668
1571.5000	0.00146807
1571.0000	0.00146702
1570.5000	0.00147229
1570.0000	0.00147317
1569.5000	0.00147279
1569.0000	0.00147599
1568.5000	0.00147659
1568.0000	0.00147629
1567.5000	0.00147512
1567.0000	0.00147671
1566.5000	0.00147816
1566.0000	0.00148126
1565.5000	0.00148266
1565.0000	0.00148207
1564.5000	0.00148433
1564.0000	0.00148396
1563.5000	0.00148662
1563.0000	0.00148901
1562.5000	0.00148855
1562.0000	0.00149128
1561.5000	0.00149186
1561.0000	0.00149321
1560.5000	0.00149488
1560.0000	0.00149452
1559.5000	0.00149693
1559.0000	0.00149828
1558.5000	0.0015004
1558.0000	0.00150253
1557.5000	0.00150368
1557.0000	0.00150268
1556.5000	0.00150122
1556.0000	0.00150247
1555.5000	0.00150433
1555.0000	0.00150876
1554.5000	0.00150803
1554.0000	0.00150909
1553.5000	0.001512
1553.0000	0.00151372
1552.5000	0.00151491
1552.0000	0.00151869
1551.5000	0.00152135
1551.0000	0.001522
1550.5000	0.00152202
1550.0000	0.0015262
1549.5000	0.00153024
1549.0000	0.00153086
1548.5000	0.00153707
1548.0000	0.0015431
1547.5000	0.0015459
1547.0000	0.00154673
1546.5000	0.0015488
1546.0000	0.00155061
1545.5000	0.00155224
1545.0000	0.00155261
1544.5000	0.00155409
1544.0000	0.00156012
1543.5000	0.0015608
1543.0000	0.00155974
1542.5000	0.00156105
1542.0000	0.0015577
1541.5000	0.00155648
1541.0000	0.00155901
1540.5000	0.00156025
1540.0000	0.00156148
1539.5000	0.00156326
1539.0000	0.00156228
1538.5000	0.00156327
1538.0000	0.00156462
1537.5000	0.00156186
1537.0000	0.00156823
1536.5000	0.0015699
1536.0000	0.00157325
1535.5000	0.00157656
1535.0000	0.00158315
1534.5000	0.0015862
1534.0000	0.00158676
1533.5000	0.0015859
1533.0000	0.00158805
1532.5000	0.00159
1532.0000	0.00159472
1531.5000	0.00159619
1531.0000	0.00159796
1530.5000	0.00159628
1530.0000	0.00159516
1529.5000	0.00159557
1529.0000	0.00160109
1528.5000	0.00160117
1528.0000	0.00160375
1527.5000	0.00160961
1527.0000	0.00161664
1526.5000	0.00161484
1526.0000	0.0016173
1525.5000	0.00161797
1525.0000	0.00162077
1524.5000	0.00162197
1524.0000	0.00162597
1523.5000	0.00162922
1523.0000	0.00162982
1522.5000	0.00162701
1522.0000	0.00162758
1521.5000	0.00162846
1521.0000	0.00162596
1520.5000	0.00162598
1520.0000	0.00162767
1519.5000	0.00162864
1519.0000	0.00163326
1518.5000	0.00163761
1518.0000	0.00164016
1517.5000	0.00164219
1517.0000	0.00164296
1516.5000	0.00164369
1516.0000	0.00164746
1515.5000	0.00164975
1515.0000	0.00164935
1514.5000	0.00165059
1514.0000	0.00165555
1513.5000	0.00166009
1513.0000	0.00166293
1512.5000	0.00166148
1512.0000	0.00166433
1511.5000	0.00166709
1511.0000	0.00167029
1510.5000	0.00167527
1510.0000	0.00168004
1509.5000	0.0016799
1509.0000	0.00168231
1508.5000	0.00168489
1508.0000	0.00168874
1507.5000	0.00168689
1507.0000	0.00168164
1506.5000	0.00168173
1506.0000	0.00168436
1505.5000	0.00168388
1505.0000	0.00168221
1504.5000	0.00168251
1504.0000	0.00167908
1503.5000	0.00167756
1503.0000	0.00168048
1502.5000	0.00168393
1502.0000	0.00168866
1501.5000	0.00169054
1501.0000	0.00169716
1500.5000	0.00170159
1500.0000	0.00170448
1499.5000	0.00170397
1499.0000	0.00170597
1498.5000	0.00170777
1498.0000	0.00171272
1497.5000	0.00171463
1497.0000	0.00171655
1496.5000	0.00171747
1496.0000	0.00171795
1495.5000	0.00171619
1495.0000	0.00171965
1494.5000	0.00171904
1494.0000	0.0017241
1493.5000	0.00172695
1493.0000	0.0017306
1492.5000	0.0017329
1492.0000	0.00173393
1491.5000	0.00173273
1491.0000	0.00173429
1490.5000	0.00173501
1490.0000	0.0017349
1489.5000	0.00173265
1489.0000	0.00173755
1488.5000	0.00173808
1488.0000	0.00174054
1487.5000	0.00174087
1487.0000	0.00174532
1486.5000	0.00174651
1486.0000	0.00174663
1485.5000	0.00174946
1485.0000	0.00175277
1484.5000	0.00175313
1484.0000	0.00175276
1483.5000	0.0017557
1483.0000	0.00175585
1482.5000	0.0017545
1482.0000	0.00175528
1481.5000	0.00175579
1481.0000	0.00175264
1480.5000	0.00175059
1480.0000	0.00175061
1479.5000	0.00175602
1479.0000	0.0017552
1478.5000	0.00175904
1478.0000	0.00176885
1477.5000	0.00177152
1477.0000	0.00177443
1476.5000	0.00177733
1476.0000	0.00177828
1475.5000	0.00177639
1475.0000	0.00177485
1474.5000	0.00177673
1474.0000	0.00178166
1473.5000	0.00178303
1473.0000	0.00178361
1472.5000	0.00178648
1472.0000	0.00179228
1471.5000	0.00179173
1471.0000	0.00179665
1470.5000	0.00180024
1470.0000	0.00180435
1469.5000	0.0018096
1469.0000	0.00181628
1468.5000	0.00182321
1468.0000	0.00183032
1467.5000	0.00183082
1467.0000	0.00183242
1466.5000	0.00183358
1466.0000	0.00183742
1465.5000	0.00183493
1465.0000	0.00183854
1464.5000	0.0018415
1464.0000	0.00184023
1463.5000	0.00184298
1463.0000	0.00184313
1462.5000	0.00184718
1462.0000	0.00184547
1461.5000	0.00184481
1461.0000	0.00184701
1460.5000	0.00184959
1460.0000	0.00184971
1459.5000	0.00185011
1459.0000	0.00185044
1458.5000	0.00184872
1458.0000	0.00185023
1457.5000	0.00185164
1457.0000	0.00185559
1456.5000	0.00185673
1456.0000	0.00185687
1455.5000	0.00185985
1455.0000	0.00185995
1454.5000	0.00185751
1454.0000	0.00186056
1453.5000	0.00186351
1453.0000	0.00187124
1452.5000	0.00187391
1452.0000	0.00188187
1451.5000	0.00188394
1451.0000	0.00188268
1450.5000	0.00188018
1450.0000	0.00188149
1449.5000	0.00188322
1449.0000	0.00188357
1448.5000	0.00189241
1448.0000	0.00190652
1447.5000	0.00190787
1447.0000	0.00191192
1446.5000	0.00190986
1446.0000	0.00191072
1445.5000	0.00190872
1445.0000	0.00191174
1444.5000	0.00191812
1444.0000	0.00192314
1443.5000	0.00192485
1443.0000	0.0019285
1442.5000	0.00193173
1442.0000	0.00192556
1441.5000	0.00192205
1441.0000	0.00192488
1440.5000	0.00192256
1440.0000	0.00192911
1439.5000	0.00193194
1439.0000	0.00193659
1438.5000	0.00193792
1438.0000	0.00193782
1437.5000	0.00194093
1437.0000	0.00194881
1436.5000	0.00195208
1436.0000	0.0019576
1435.5000	0.00195637
1435.0000	0.00195961
1434.5000	0.00196059
1434.0000	0.00196712
1433.5000	0.00196831
1433.0000	0.00196916
1432.5000	0.00196807
1432.0000	0.0019698
1431.5000	0.00197142
1431.0000	0.00197259
1430.5000	0.0019735
1430.0000	0.00197426
1429.5000	0.00197685
1429.0000	0.00198001
1428.5000	0.00197759
1428.0000	0.00197589
1427.5000	0.00197026
1427.0000	0.00197152
1426.5000	0.00197246
1426.0000	0.00198211
1425.5000	0.00198714
1425.0000	0.00198991
1424.5000	0.00198916
1424.0000	0.00198881
1423.5000	0.0019859
1423.0000	0.00198525
1422.5000	0.00198505
1422.0000	0.00199157
1421.5000	0.00199719
1421.0000	0.00200529
1420.5000	0.00200926
1420.0000	0.00201477
1419.5000	0.00201304
1419.0000	0.0020043
1418.5000	0.00200114
1418.0000	0.00200594
1417.5000	0.00200632
1417.0000	0.00201972
1416.5000	0.00202599
1416.0000	0.0020349
1415.5000	0.00203467
1415.0000	0.00203351
1414.5000	0.00203337
1414.0000	0.00202894
1413.5000	0.00202522
1413.0000	0.00201964
1412.5000	0.00202764
1412.0000	0.00203683
1411.5000	0.00204301
1411.0000	0.00205144
1410.5000	0.00204994
1410.0000	0.0020536
1409.5000	0.00205287
1409.0000	0.0020529
1408.5000	0.00205195
1408.0000	0.0020578
1407.5000	0.00206663
1407.0000	0.00209489
1406.5000	0.00210803
1406.0000	0.00210962
1405.5000	0.00210763
1405.0000	0.00209415
1404.5000	0.00208848
1404.0000	0.00208412
1403.5000	0.00207889
1403.0000	0.00208894
1402.5000	0.00210039
1402.0000	0.00211666
1401.5000	0.00212588
1401.0000	0.0021206
1400.5000	0.00211107
1400.0000	0.00210257
1399.5000	0.0020923
1399.0000	0.00209439
1398.5000	0.00210499
1398.0000	0.0021162
1397.5000	0.00213691
1397.0000	0.00215489
1396.5000	0.00215123
1396.0000	0.00214328
1395.5000	0.00212833
1395.0000	0.0021296
1394.5000	0.00214002
1394.0000	0.00215334
1393.5000	0.00217242
1393.0000	0.00218571
1392.5000	0.00218468
1392.0000	0.0021796
1391.5000	0.00216649
1391.0000	0.00214752
1390.5000	0.00214795
1390.0000	0.00215835
1389.5000	0.00217182
1389.0000	0.00217387
1388.5000	0.00216357
1388.0000	0.00215439
1387.5000	0.0021514
1387.0000	0.00214107
1386.5000	0.00213699
1386.0000	0.0021348
1385.5000	0.00214057
1385.0000	0.00216319
1384.5000	0.00216799
1384.0000	0.00217149
1383.5000	0.00216623
1383.0000	0.00217562
1382.5000	0.00219058
1382.0000	0.00220757
1381.5000	0.00221926
1381.0000	0.00221459
1380.5000	0.00222203
1380.0000	0.00222827
1379.5000	0.00223623
1379.0000	0.00223504
1378.5000	0.00223296
1378.0000	0.00223547
1377.5000	0.00222965
1377.0000	0.00222492
1376.5000	0.00221514
1376.0000	0.00220154
1375.5000	0.0021898
1375.0000	0.00216896
1374.5000	0.00216349
1374.0000	0.00215066
1373.5000	0.0021496
1373.0000	0.00215646
1372.5000	0.00215675
1372.0000	0.00215467
1371.5000	0.00213999
1371.0000	0.00213294
1370.5000	0.00213064
1370.0000	0.00213635
1369.5000	0.00214706
1369.0000	0.00215687
1368.5000	0.00215447
1368.0000	0.00214535
1367.5000	0.00214915
1367.0000	0.00215695
1366.5000	0.00216197
1366.0000	0.00215597
1365.5000	0.00213933
1365.0000	0.00213611
1364.5000	0.00213876
1364.0000	0.0021382
1363.5000	0.0021396
1363.0000	0.0021461
1362.5000	0.00215856
1362.0000	0.00218253
1361.5000	0.00220029
1361.0000	0.00222538
1360.5000	0.0022242
1360.0000	0.00222137
1359.5000	0.00223653
1359.0000	0.00227324
1358.5000	0.00229451
1358.0000	0.0023059
1357.5000	0.00230614
1357.0000	0.00230955
1356.5000	0.00231043
1356.0000	0.00231745
1355.5000	0.00231501
1355.0000	0.00231904
1354.5000	0.00231772
1354.0000	0.00232998
1353.5000	0.00233306
1353.0000	0.00233567
1352.5000	0.00233808
1352.0000	0.00233924
1351.5000	0.00234066
1351.0000	0.00233611
1350.5000	0.00233303
1350.0000	0.0023344
1349.5000	0.00233352
1349.0000	0.00233002
1348.5000	0.00232814
1348.0000	0.00232986
1347.5000	0.00232827
1347.0000	0.00232272
1346.5000	0.00232504
1346.0000	0.00233217
1345.5000	0.0023366
1345.0000	0.00233753
1344.5000	0.00233325
1344.0000	0.00233587
1343.5000	0.00233547
1343.0000	0.00233909
1342.5000	0.00234237
1342.0000	0.00234575
1341.5000	0.00234533
1341.0000	0.00234924
1340.5000	0.00235249
1340.0000	0.00235387
1339.5000	0.00235454
1339.0000	0.00235797
1338.5000	0.00236111
1338.0000	0.00236722
1337.5000	0.00236958
1337.0000	0.00237333
1336.5000	0.00237185
1336.0000	0.00237291
1335.5000	0.00237377
1335.0000	0.00237734
1334.5000	0.00237626
1334.0000	0.00237688
1333.5000	0.00237877
1333.0000	0.00238153
1332.5000	0.00238306
1332.0000	0.0023852
1331.5000	0.00238779
1331.0000	0.00239059
1330.5000	0.00239265
1330.0000	0.00239855
1329.5000	0.00240114
1329.0000	0.00240335
1328.5000	0.00240618
1328.0000	0.00241265
1327.5000	0.00241746
1327.0000	0.00242098
1326.5000	0.00242139
1326.0000	0.00242558
1325.5000	0.0024278
1325.0000	0.00243043
1324.5000	0.00243272
1324.0000	0.00243333
1323.5000	0.00243534
1323.0000	0.00244115
1322.5000	0.00244568
1322.0000	0.00244963
1321.5000	0.00245128
1321.0000	0.00245375
1320.5000	0.00245683
1320.0000	0.00246109
1319.5000	0.00246191
1319.0000	0.00246571
1318.5000	0.00246707
1318.0000	0.00247142
1317.5000	0.00247016
1317.0000	0.00247098
1316.5000	0.00247261
1316.0000	0.00247224
1315.5000	0.00247
1315.0000	0.00247114
1314.5000	0.0024731
1314.0000	0.00247692
1313.5000	0.0024807
1313.0000	0.0024853
1312.5000	0.00248604
1312.0000	0.00248895
1311.5000	0.00249003
1311.0000	0.00249772
1310.5000	0.0025023
1310.0000	0.00250886
1309.5000	0.00251299
1309.0000	0.00252317
1308.5000	0.0025256
1308.0000	0.00252632
1307.5000	0.00252788
1307.0000	0.00253079
1306.5000	0.00253335
1306.0000	0.00253756
1305.5000	0.00254103
1305.0000	0.00254733
1304.5000	0.00254854
1304.0000	0.00254874
1303.5000	0.00255115
1303.0000	0.0025523
1302.5000	0.00255063
1302.0000	0.00255446
1301.5000	0.00255766
1301.0000	0.00256301
1300.5000	0.00256407
1300.0000	0.00256438
1299.5000	0.00256636
1299.0000	0.00256873
1298.5000	0.00256755
1298.0000	0.00257108
1297.5000	0.00257247
1297.0000	0.00257738
1296.5000	0.00258009
1296.0000	0.00258763
1295.5000	0.00258921
1295.0000	0.00259303
1294.5000	0.00259433
1294.0000	0.0025989
1293.5000	0.00260082
1293.0000	0.00260396
1292.5000	0.00260793
1292.0000	0.00261644
1291.5000	0.00262029
1291.0000	0.00262211
1290.5000	0.00262388
1290.0000	0.00262713
1289.5000	0.00262702
1289.0000	0.00262812
1288.5000	0.00263035
1288.0000	0.0026353
1287.5000	0.00263701
1287.0000	0.0026396
1286.5000	0.0026423
1286.0000	0.00264297
1285.5000	0.00264243
1285.0000	0.00264425
1284.5000	0.0026486
1284.0000	0.0026543
1283.5000	0.0026579
1283.0000	0.00266548
1282.5000	0.00267036
1282.0000	0.00267348
1281.5000	0.00267453
1281.0000	0.00268093
1280.5000	0.00268621
1280.0000	0.00268981
1279.5000	0.00269374
1279.0000	0.00270002
1278.5000	0.00270378
1278.0000	0.00270603
1277.5000	0.00270741
1277.0000	0.0027101
1276.5000	0.00271114
1276.0000	0.00271595
1275.5000	0.00271862
1275.0000	0.00272631
1274.5000	0.00272682
1274.0000	0.00273151
1273.5000	0.00273554
1273.0000	0.00274315
1272.5000	0.00274817
1272.0000	0.00275051
1271.5000	0.00275245
1271.0000	0.00275542
1270.5000	0.00275949
1270.0000	0.00276252
1269.5000	0.00276371
1269.0000	0.00276941
1268.5000	0.00277037
1268.0000	0.00277692
1267.5000	0.00277893
1267.0000	0.00278167
1266.5000	0.00278049
1266.0000	0.00278009
1265.5000	0.00278508
1265.0000	0.00279198
1264.5000	0.00279583
1264.0000	0.00279897
1263.5000	0.00280165
1263.0000	0.00280526
1262.5000	0.00280512
1262.0000	0.00280586
1261.5000	0.00280741
1261.0000	0.00281238
1260.5000	0.00281501
1260.0000	0.00282299
1259.5000	0.00282552
1259.0000	0.0028283
1258.5000	0.00283044
1258.0000	0.00283297
1257.5000	0.00283476
1257.0000	0.00283956
1256.5000	0.00284341
1256.0000	0.00284912
1255.5000	0.00285234
1255.0000	0.00285285
1254.5000	0.0028531
1254.0000	0.00285462
1253.5000	0.00285531
1253.0000	0.00285944
1252.5000	0.00286262
1252.0000	0.00286567
1251.5000	0.00286986
1251.0000	0.00287821
1250.5000	0.00288041
1250.0000	0.00288342
1249.5000	0.0028884
1249.0000	0.00289534
1248.5000	0.00290115
1248.0000	0.00290633
1247.5000	0.00291113
1247.0000	0.00291749
1246.5000	0.00292385
1246.0000	0.00292842
1245.5000	0.00293172
1245.0000	0.00293487
1244.5000	0.002937
1244.0000	0.00294246
1243.5000	0.00294586
1243.0000	0.00294944
1242.5000	0.00295345
1242.0000	0.00295762
1241.5000	0.00296342
1241.0000	0.00296908
1240.5000	0.00297257
1240.0000	0.00297346
1239.5000	0.00297487
1239.0000	0.00298128
1238.5000	0.00298606
1238.0000	0.00299303
1237.5000	0.00299637
1237.0000	0.00299933
1236.5000	0.00300323
1236.0000	0.00300781
1235.5000	0.00301199
1235.0000	0.00301363
1234.5000	0.00301899
1234.0000	0.00302821
1233.5000	0.00303351
1233.0000	0.00303865
1232.5000	0.00303966
1232.0000	0.00304225
1231.5000	0.00304626
1231.0000	0.00305222
1230.5000	0.00305702
1230.0000	0.00306169
1229.5000	0.00306656
1229.0000	0.00307233
1228.5000	0.00307723
1228.0000	0.00307827
1227.5000	0.00307587
1227.0000	0.00307768
1226.5000	0.00307974
1226.0000	0.00308878
1225.5000	0.00309117
1225.0000	0.00309369
1224.5000	0.00309239
1224.0000	0.00309484
1223.5000	0.00309819
1223.0000	0.00310268
1222.5000	0.0031047
1222.0000	0.00311048
1221.5000	0.00311318
1221.0000	0.0031194
1220.5000	0.00312301
1220.0000	0.00312894
1219.5000	0.00313055
1219.0000	0.00313376
1218.5000	0.00313868
1218.0000	0.00314658
1217.5000	0.00315128
1217.0000	0.00315576
1216.5000	0.00315974
1216.0000	0.003162
1215.5000	0.00316363
1215.0000	0.00317008
1214.5000	0.00317398
1214.0000	0.00318059
1213.5000	0.00318554
1213.0000	0.00319161
1212.5000	0.00319665
1212.0000	0.00319959
1211.5000	0.00320358
1211.0000	0.00320743
1210.5000	0.00321153
1210.0000	0.00321688
1209.5000	0.00322305
1209.0000	0.0032298
1208.5000	0.00323218
1208.0000	0.00323142
1207.5000	0.00323416
1207.0000	0.00323898
1206.5000	0.00324178
1206.0000	0.00324702
1205.5000	0.00325155
1205.0000	0.0032555
1204.5000	0.00326158
1204.0000	0.00326201
1203.5000	0.00326102
1203.0000	0.00326601
1202.5000	0.00326899
1202.0000	0.00327845
1201.5000	0.00328233
1201.0000	0.00328964
1200.5000	0.00329161
1200.0000	0.00329493
1199.5000	0.00329839
1199.0000	0.0033019
1198.5000	0.00330778
1198.0000	0.00331276
1197.5000	0.00331511
1197.0000	0.00331893
1196.5000	0.00332072
1196.0000	0.00332354
1195.5000	0.00332611
1195.0000	0.00333167
1194.5000	0.00333818
1194.0000	0.00334017
1193.5000	0.00334302
1193.0000	0.00334641
1192.5000	0.0033504
1192.0000	0.00335704
1191.5000	0.00336059
1191.0000	0.00336486
1190.5000	0.00336943
1190.0000	0.00337524
1189.5000	0.00338062
1189.0000	0.00338586
1188.5000	0.0033898
1188.0000	0.00339145
1187.5000	0.00339998
1187.0000	0.00340594
1186.5000	0.00341057
1186.0000	0.00341304
1185.5000	0.00341643
1185.0000	0.00342325
1184.5000	0.00342695
1184.0000	0.00343094
1183.5000	0.00343655
1183.0000	0.00344143
1182.5000	0.00344584
1182.0000	0.00344844
1181.5000	0.00345113
1181.0000	0.00345756
1180.5000	0.00346261
1180.0000	0.00346739
1179.5000	0.00347447
1179.0000	0.00348197
1178.5000	0.00348569
1178.0000	0.0034899
1177.5000	0.00349618
1177.0000	0.00350043
1176.5000	0.00350267
1176.0000	0.00350831
1175.5000	0.00351371
1175.0000	0.00352124
1174.5000	0.00352537
1174.0000	0.00353298
1173.5000	0.00353862
1173.0000	0.00354161
1172.5000	0.00354803
1172.0000	0.00355675
1171.5000	0.00356631
1171.0000	0.00357225
1170.5000	0.0035772
1170.0000	0.0035852
1169.5000	0.00359031
1169.0000	0.0035978
1168.5000	0.0036049
1168.0000	0.00361104
1167.5000	0.00361555
1167.0000	0.00361983
1166.5000	0.00362571
1166.0000	0.00362856
1165.5000	0.00362905
1165.0000	0.00362844
1164.5000	0.00363492
1164.0000	0.003639
1163.5000	0.00364385
1163.0000	0.00364918
1162.5000	0.00365315
1162.0000	0.00365799
1161.5000	0.00365969
1161.0000	0.00366603
1160.5000	0.00367144
1160.0000	0.00367619
1159.5000	0.00367975
1159.0000	0.00368685
1158.5000	0.00369322
1158.0000	0.00369894
1157.5000	0.00370238
1157.0000	0.00370876
1156.5000	0.00371541
1156.0000	0.00371807
1155.5000	0.00372003
1155.0000	0.0037289
1154.5000	0.00373423
1154.0000	0.00374153
1153.5000	0.00374456
1153.0000	0.00374959
1152.5000	0.00375618
1152.0000	0.00376343
1151.5000	0.0037672
1151.0000	0.00377286
1150.5000	0.00377579
1150.0000	0.00378076
1149.5000	0.00378911
1149.0000	0.00379429
1148.5000	0.00379954
1148.0000	0.00380351
1147.5000	0.00380874
1147.0000	0.00381855
1146.5000	0.00382433
1146.0000	0.00382778
1145.5000	0.00383088
1145.0000	0.00383429
1144.5000	0.00383913
1144.0000	0.00384667
1143.5000	0.00385205
1143.0000	0.00385671
1142.5000	0.00386047
1142.0000	0.00386576
1141.5000	0.00387012
1141.0000	0.00387213
1140.5000	0.00387378
1140.0000	0.00387407
1139.5000	0.00387959
1139.0000	0.00388909
1138.5000	0.00389698
1138.0000	0.00390823
1137.5000	0.00391428
1137.0000	0.00392524
1136.5000	0.00393154
1136.0000	0.00393783
1135.5000	0.00394549
1135.0000	0.00395161
1134.5000	0.0039595
1134.0000	0.00397002
1133.5000	0.00398068
1133.0000	0.00398734
1132.5000	0.00399376
1132.0000	0.00400093
1131.5000	0.00400298
1131.0000	0.00400811
1130.5000	0.00401139
1130.0000	0.0040217
1129.5000	0.00403058
